Frequency,Channel A
(kHz),(dBV)

0.00000000,-36.59285000
0.00195300,-39.58213000
0.00390600,-29.87507000
0.00585900,-19.22931000
0.00781200,-15.37365000
0.00976500,-14.92770000
0.01171800,-15.09989000
0.01367100,-17.77456000
0.01562400,-26.50780000
0.01757700,-42.94402000
0.01953000,-47.18115000
0.02148300,-47.22382000
0.02343600,-38.51645000
0.02538900,-26.00161000
0.02734200,-20.79854000
0.02929500,-19.88507000
0.03124800,-19.93555000
0.03320100,-21.64057000
0.03515400,-28.64375000
0.03710700,-43.97506000
0.03906000,-56.04003000
0.04101300,-55.74443000
0.04296600,-34.12247000
0.04491900,-18.77337000
0.04687200,-12.01710000
0.04882500,-10.41785000
0.05077800,-10.38509000
0.05273100,-11.38268000
0.05468400,-16.80998000
0.05663700,-29.94135000
0.05859000,-43.76494000
0.06054300,-44.06512000
0.06249600,-44.84650000
0.06444900,-48.48131000
0.06640200,-45.58175000
0.06835500,-43.32427000
0.07030800,-43.09708000
0.07226100,-43.67897000
0.07421400,-47.15272000
0.07616700,-47.26271000
0.07812000,-44.52275000
0.08007300,-44.28646000
0.08202600,-43.51904000
0.08397900,-29.44963000
0.08593200,-19.16130000
0.08788500,-15.51529000
0.08983800,-15.13081000
0.09179100,-15.33030000
0.09374400,-18.17566000
0.09569700,-27.19980000
0.09765000,-45.83888000
0.09960300,-57.69846000
0.10155600,-55.03113000
0.10350900,-33.60430000
0.10546200,-21.06366000
0.10741500,-16.08310000
0.10936800,-15.26187000
0.11132100,-15.31729000
0.11327400,-17.17682000
0.11522700,-24.43328000
0.11718000,-39.89145000
0.11913300,-46.88398000
0.12108600,-46.82564000
0.12303900,-44.86037000
0.12499200,-32.48161000
0.12694500,-26.04213000
0.12889800,-24.55642000
0.13085100,-24.55050000
0.13280400,-25.63540000
0.13475700,-31.27619000
0.13671000,-41.95236000
0.13866300,-43.20443000
0.14061600,-43.15583000
0.14256901,-43.26690000
0.14452201,-34.46657000
0.14647501,-26.46104000
0.14842801,-24.10520000
0.15038101,-23.97528000
0.15233401,-24.53231000
0.15428701,-28.76129000
0.15624001,-39.72829000
0.15819301,-47.80668000
0.16014601,-47.55850000
0.16209901,-46.61644000
0.16405201,-32.61880000
0.16600501,-22.63595000
0.16795801,-19.17885000
0.16991101,-18.84480000
0.17186401,-19.08277000
0.17381701,-22.10937000
0.17577001,-31.46768000
0.17772301,-49.77654000
0.17967601,-54.46965000
0.18162901,-54.16768000
0.18358201,-39.99803000
0.18553501,-27.84398000
0.18748801,-23.07958000
0.18944101,-22.33493000
0.19139401,-22.40692000
0.19334701,-24.40029000
0.19530001,-31.87558000
0.19725301,-43.25237000
0.19920601,-43.67305000
0.20115901,-43.73344000
0.20311201,-45.26951000
0.20506501,-48.38715000
0.20701801,-44.49439000
0.20897101,-43.15548000
0.21092401,-43.04750000
0.21287701,-44.27794000
0.21483001,-48.50895000
0.21678301,-46.26134000
0.21873601,-44.53007000
0.22068901,-44.41620000
0.22264201,-43.93661000
0.22459501,-33.06272000
0.22654801,-25.26376000
0.22850101,-23.06188000
0.23045401,-22.96170000
0.23240701,-23.59006000
0.23436001,-28.02728000
0.23631301,-39.62112000
0.23826601,-57.69027000
0.24021901,-59.63957000
0.24217201,-54.33395000
0.24412501,-35.78006000
0.24607801,-26.06026000
0.24803101,-22.79375000
0.24998401,-22.51267000
0.25193701,-22.79541000
0.25389001,-26.00582000
0.25584301,-35.57663000
0.25779601,-46.19370000
0.25974901,-46.11048000
0.26170201,-46.24794000
0.26365501,-46.09446000
0.26560801,-37.19774000
0.26756101,-32.66973000
0.26951401,-31.99323000
0.27146701,-32.08280000
0.27342001,-34.20617000
0.27537301,-41.27864000
0.27732601,-43.93576000
0.27927901,-43.08724000
0.28123201,-43.05439000
0.28318501,-43.62169000
0.28513801,-36.10899000
0.28709101,-30.23307000
0.28904401,-28.99470000
0.29099701,-28.99686000
0.29295001,-30.31601000
0.29490301,-36.42895000
0.29685601,-47.75416000
0.29880901,-48.77579000
0.30076201,-48.71134000
0.30271501,-46.87408000
0.30466801,-33.70929000
0.30662101,-26.12778000
0.30857401,-24.07078000
0.31052701,-23.99765000
0.31248001,-24.70375000
0.31443301,-29.37288000
0.31638601,-41.26076000
0.31833901,-52.31526000
0.32029201,-52.35129000
0.32224501,-52.11115000
0.32419801,-40.20477000
0.32615101,-30.86508000
0.32810401,-27.77869000
0.33005701,-27.53455000
0.33201001,-27.85763000
0.33396301,-31.24625000
0.33591601,-40.38095000
0.33786901,-43.89982000
0.33982201,-43.58399000
0.34177501,-43.75966000
0.34372801,-46.31554000
0.34568101,-47.15005000
0.34763401,-43.60798000
0.34958701,-43.09992000
0.35154001,-43.23264000
0.35349301,-45.51311000
0.35544601,-48.79081000
0.35739901,-45.41629000
0.35935201,-44.60056000
0.36130501,-44.68733000
0.36325801,-44.08528000
0.36521101,-33.73943000
0.36716401,-27.97678000
0.36911701,-26.81638000
0.37107001,-26.81217000
0.37302301,-28.22589000
0.37497601,-34.57289000
0.37692901,-49.05513000
0.37888201,-63.82427000
0.38083501,-64.77836000
0.38278801,-52.50852000
0.38474101,-35.93990000
0.38669401,-28.52249000
0.38864701,-26.58936000
0.39060001,-26.52857000
0.39255301,-27.31137000
0.39450601,-32.19421000
0.39645901,-43.14846000
0.39841201,-45.86110000
0.40036501,-45.73037000
0.40231801,-46.27625000
0.40427101,-46.73305000
0.40622401,-39.98063000
0.40817701,-37.10968000
0.41013001,-36.92844000
0.41208301,-37.29817000
0.41403601,-40.75506000
0.41598901,-45.46980000
0.41794201,-43.39806000
0.41989501,-43.07302000
0.42184801,-43.28506000
0.42380101,-43.77472000
0.42575401,-36.32247000
0.42770702,-32.26656000
0.42966002,-31.75283000
0.43161302,-31.88847000
0.43356602,-34.35514000
0.43551902,-42.49800000
0.43747202,-49.63194000
0.43942502,-49.13095000
0.44137802,-49.18515000
0.44333102,-45.62305000
0.44528402,-33.72755000
0.44723702,-28.22003000
0.44919002,-27.17915000
0.45114302,-27.20484000
0.45309602,-28.74912000
0.45504902,-35.36791000
0.45700202,-48.56712000
0.45895502,-51.32091000
0.46090802,-51.28252000
0.46286102,-50.75126000
0.46481402,-39.91505000
0.46676702,-32.89070000
0.46872002,-31.10782000
0.47067302,-31.06713000
0.47262602,-31.93189000
0.47457902,-36.98083000
0.47653202,-44.32434000
0.47848502,-43.37164000
0.48043802,-43.17127000
0.48239102,-43.71202000
0.48434402,-47.22736000
0.48629702,-45.89326000
0.48825002,-43.33971000
0.49020302,-43.11954000
0.49215602,-43.48523000
0.49410902,-46.86926000
0.49606202,-48.14456000
0.49801502,-45.27751000
0.49996802,-44.95353000
0.50192102,-45.18066000
0.50387402,-42.95357000
0.50582702,-33.66326000
0.50778002,-29.77031000
0.50973302,-29.31308000
0.51168602,-29.46341000
0.51363902,-32.05542000
0.51559202,-40.62633000
0.51754502,-58.53733000
0.51949802,-74.05227000
0.52145102,-70.53199000
0.52340402,-48.44647000
0.52535702,-35.56070000
0.52731002,-30.27973000
0.52926302,-29.32757000
0.53121602,-29.35764000
0.53316902,-31.00852000
0.53512202,-37.70988000
0.53707502,-45.78476000
0.53902802,-45.39547000
0.54098102,-45.37045000
0.54293402,-46.59405000
0.54488702,-47.82449000
0.54684002,-42.53790000
0.54879302,-40.83052000
0.55074602,-40.76313000
0.55269902,-41.63863000
0.55465202,-45.84475000
0.55660502,-45.06297000
0.55855802,-43.16524000
0.56051102,-43.09827000
0.56246402,-43.71592000
0.56441702,-43.15785000
0.56637002,-36.20304000
0.56832302,-33.65314000
0.57027602,-33.51726000
0.57222902,-34.01522000
0.57418202,-37.99929000
0.57613502,-47.83333000
0.57808802,-50.38002000
0.58004102,-50.06782000
0.58199402,-50.17618000
0.58394702,-43.53952000
0.58590002,-33.59569000
0.58785302,-29.88944000
0.58980602,-29.49067000
0.59175902,-29.68534000
0.59371202,-32.46814000
0.59566502,-41.25996000
0.59761802,-50.44671000
0.59957102,-50.15471000
0.60152402,-50.18618000
0.60347702,-49.37107000
0.60543002,-39.68980000
0.60738302,-34.66662000
0.60933602,-33.81687000
0.61128902,-33.89167000
0.61324202,-35.69213000
0.61519502,-42.13887000
0.61714802,-44.09349000
0.61910102,-43.01958000
0.62105402,-43.00499000
0.62300702,-44.31952000
0.62496002,-47.88663000
0.62691302,-44.67325000
0.62886602,-43.17522000
0.63081902,-43.09150000
0.63277202,-44.05443000
0.63472502,-48.19215000
0.63667802,-46.98307000
0.63863102,-45.16382000
0.64058402,-45.07821000
0.64253702,-45.59874000
0.64449002,-41.41465000
0.64644302,-33.70403000
0.64839602,-31.28354000
0.65034902,-31.15387000
0.65230202,-31.69372000
0.65425502,-35.86026000
0.65620802,-47.12209000
0.65816102,-70.84474000
0.66011402,-84.73439000
0.66206702,-65.89546000
0.66402002,-45.63545000
0.66597302,-35.45044000
0.66792602,-31.90831000
0.66987902,-31.55586000
0.67183202,-31.77661000
0.67378502,-34.69324000
0.67573802,-42.83699000
0.67769102,-45.37087000
0.67964402,-44.93935000
0.68159702,-45.07013000
0.68355002,-47.44221000
0.68550302,-49.22616000
0.68745602,-45.31434000
0.68940902,-44.50246000
0.69136202,-44.56100000
0.69331502,-46.39803000
0.69526802,-48.43037000
0.69722102,-44.30138000
0.69917402,-43.27197000
0.70112702,-43.31844000
0.70308002,-44.58519000
0.70503302,-42.06261000
0.70698602,-36.29010000
0.70893902,-34.90920000
0.71089202,-34.90368000
0.71284503,-36.07594000
0.71479803,-41.83168000
0.71675103,-50.83369000
0.71870403,-50.63091000
0.72065703,-50.58088000
0.72261003,-50.67017000
0.72456303,-41.52285000
0.72651603,-33.66224000
0.72846903,-31.38681000
0.73042203,-31.27268000
0.73237503,-31.86622000
0.73432803,-36.19693000
0.73628103,-46.30858000
0.73823403,-49.26204000
0.74018703,-49.09953000
0.74214003,-49.52599000
0.74409303,-48.27175000
0.74604603,-39.80194000
0.74799903,-36.43785000
0.74995203,-36.12058000
0.75190503,-36.34110000
0.75385803,-39.36141000
0.75581103,-45.12489000
0.75776403,-43.46845000
0.75971703,-42.94126000
0.76167003,-43.01415000
0.76362303,-45.28909000
0.76557603,-47.08388000
0.76752903,-43.66563000
0.76948203,-43.06734000
0.77143503,-43.19814000
0.77338803,-45.32312000
0.77534103,-49.32825000
0.77729403,-46.33727000
0.77924703,-45.42416000
0.78120003,-45.45442000
0.78315303,-46.29486000
0.78510603,-39.88852000
0.78705903,-33.96474000
0.78901203,-32.67719000
0.79096503,-32.68488000
0.79291803,-33.96031000
0.79487103,-40.04808000
0.79682403,-54.56117000
0.79877703,-64.14864000
0.80073003,-63.32209000
0.80268303,-58.32596000
0.80463603,-43.25421000
0.80658903,-35.57437000
0.80854203,-33.45552000
0.81049503,-33.36959000
0.81244803,-34.02996000
0.81440103,-38.51798000
0.81635403,-45.58934000
0.81830703,-44.53754000
0.82026003,-44.28920000
0.82221303,-44.71947000
0.82416603,-48.31460000
0.82611903,-51.00223000
0.82807203,-48.70969000
0.83002503,-48.50521000
0.83197803,-48.78426000
0.83393103,-51.14375000
0.83588403,-47.39914000
0.83783703,-43.65633000
0.83979003,-43.18906000
0.84174303,-43.32289000
0.84369603,-45.04866000
0.84564903,-40.64760000
0.84760203,-36.46014000
0.84955503,-35.87956000
0.85150803,-36.01128000
0.85346103,-38.26232000
0.85541403,-45.92439000
0.85736703,-52.05997000
0.85932003,-51.58886000
0.86127303,-51.66141000
0.86322603,-50.60340000
0.86517903,-39.85511000
0.86713203,-34.00953000
0.86908503,-32.81165000
0.87103803,-32.81954000
0.87299103,-34.20145000
0.87494403,-40.42370000
0.87689703,-48.79932000
0.87885003,-48.19986000
0.88080303,-48.20385000
0.88275603,-49.21610000
0.88470903,-47.03808000
0.88666203,-40.28860000
0.88861503,-38.27331000
0.89056803,-38.17920000
0.89252103,-38.89901000
0.89447403,-43.23019000
0.89642703,-44.88076000
0.89838003,-42.80701000
0.90033303,-42.73231000
0.90228603,-43.31015000
0.90423903,-46.81188000
0.90619203,-45.97975000
0.90814503,-43.25807000
0.91009803,-43.04816000
0.91205103,-43.40533000
0.91400403,-46.70527000
0.91595703,-48.75673000
0.91791003,-45.92529000
0.91986303,-45.61726000
0.92181603,-45.83380000
0.92376903,-46.05863000
0.92572203,-38.47675000
0.92767503,-34.37429000
0.92962803,-33.85725000
0.93158103,-34.00267000
0.93353403,-36.39827000
0.93548703,-44.68532000
0.93744003,-60.42735000
0.93939303,-63.30713000
0.94134603,-63.31051000
0.94329903,-54.81747000
0.94525203,-41.69630000
0.94720503,-36.06750000
0.94915803,-34.96265000
0.95111103,-34.97681000
0.95306403,-36.47126000
0.95501703,-42.52636000
0.95697003,-45.28333000
0.95892303,-43.99601000
0.96087603,-43.96217000
0.96282903,-45.12836000
0.96478203,-50.67712000
0.96673503,-55.14305000
0.96868803,-53.61429000
0.97064103,-53.41690000
0.97259403,-53.98180000
0.97454703,-52.53250000
0.97650003,-45.48477000
0.97845303,-43.18168000
0.98040603,-43.08336000
0.98235903,-43.66011000
0.98431203,-45.18951000
0.98626503,-39.53832000
0.98821803,-36.78414000
0.99017103,-36.58978000
0.99212403,-37.00679000
0.99407703,-40.64470000
0.99603004,-49.64154000
0.99798304,-52.54398000
0.99993604,-52.34185000
1.00188904,-52.58117000
1.00384204,-48.68675000
1.00579504,-38.65783000
1.00774804,-34.65005000
1.00970104,-34.15483000
1.01165404,-34.28562000
1.01360704,-36.80312000
1.01556004,-44.65591000
1.01751304,-48.30528000
1.01946604,-47.69165000
1.02141904,-47.74471000
1.02337204,-49.41061000
1.02532504,-46.30527000
1.02727804,-41.15399000
1.02923104,-40.13474000
1.03118404,-40.16234000
1.03313704,-41.72632000
1.03509004,-46.15137000
1.03704304,-43.80556000
1.03899604,-42.55962000
1.04094904,-42.56713000
1.04290204,-43.77418000
1.04485504,-47.61930000
1.04680804,-44.75044000
1.04876104,-43.08739000
1.05071404,-43.02467000
1.05266704,-43.87814000
1.05462004,-48.04370000
1.05657304,-47.77671000
1.05852604,-45.88606000
1.06047904,-45.83122000
1.06243204,-46.49430000
1.06438504,-45.28885000
1.06633804,-37.76252000
1.06829104,-35.09059000
1.07024404,-34.92046000
1.07219704,-35.37014000
1.07415004,-39.23209000
1.07610304,-49.68218000
1.07805604,-58.05519000
1.08000904,-58.18523000
1.08196204,-58.64220000
1.08391504,-51.27610000
1.08586804,-40.72514000
1.08782104,-36.86668000
1.08977404,-36.42286000
1.09172704,-36.59745000
1.09368004,-39.27457000
1.09563304,-45.43955000
1.09758604,-44.21868000
1.09953904,-43.60961000
1.10149204,-43.69331000
1.10344504,-45.82225000
1.10539804,-53.24788000
1.10735104,-60.02482000
1.10930404,-59.46713000
1.11125704,-59.34658000
1.11321004,-59.29573000
1.11516304,-50.29809000
1.11711604,-44.41832000
1.11906904,-43.19118000
1.12102204,-43.21049000
1.12297504,-44.47911000
1.12492804,-44.60615000
1.12688104,-39.06762000
1.12883404,-37.50053000
1.13078704,-37.46826000
1.13274004,-38.48156000
1.13469304,-43.89901000
1.13664604,-53.48816000
1.13859904,-53.84188000
1.14055204,-53.90848000
1.14250504,-54.34545000
1.14445804,-46.24635000
1.14641104,-37.91801000
1.14836404,-35.37957000
1.15031704,-35.22178000
1.15227004,-35.72680000
1.15422304,-39.74165000
1.15617604,-47.38230000
1.15812904,-47.00340000
1.16008204,-46.81484000
1.16203504,-47.09392000
1.16398804,-49.55267000
1.16594104,-45.98019000
1.16789404,-42.42973000
1.16984704,-42.01381000
1.17180004,-42.19159000
1.17375304,-44.87440000
1.17570604,-46.40686000
1.17765904,-42.87569000
1.17961204,-42.30636000
1.18156504,-42.42763000
1.18351804,-44.64245000
1.18547104,-47.33254000
1.18742404,-43.90012000
1.18937704,-43.13005000
1.19133004,-43.18161000
1.19328304,-45.03585000
1.19523604,-49.69859000
1.19718904,-47.17381000
1.19914204,-46.05685000
1.20109504,-46.13421000
1.20304804,-47.27346000
1.20500104,-43.32284000
1.20695404,-37.23534000
1.20890704,-35.75442000
1.21086004,-35.71618000
1.21281304,-36.80085000
1.21476604,-42.38123000
1.21671904,-53.62059000
1.21867204,-56.24151000
1.22062504,-56.25240000
1.22257804,-56.70772000
1.22453104,-48.40093000
1.22648404,-40.23189000
1.22843704,-37.83727000
1.23039004,-37.70983000
1.23234304,-38.27260000
1.23429604,-42.31808000
1.23624904,-45.54584000
1.23820204,-43.34106000
1.24015504,-43.16964000
1.24210804,-43.57829000
1.24406104,-47.19044000
1.24601404,-57.44749000
1.24796704,-75.86470000
1.24992004,-78.82500000
1.25187304,-79.33166000
1.25382604,-59.44179000
1.25577904,-47.81459000
1.25773204,-43.66038000
1.25968504,-43.13087000
1.26163804,-43.24916000
1.26359104,-45.27662000
1.26554404,-43.02199000
1.26749704,-38.69643000
1.26945004,-37.99454000
1.27140304,-38.09333000
1.27335604,-40.15741000
1.27530904,-47.68152000
1.27726204,-56.16912000
1.27921504,-55.76155000
1.28116805,-55.94015000
1.28312105,-55.02790000
1.28507405,-43.92119000
1.28702705,-37.68154000
1.28898005,-36.31722000
1.29093305,-36.29497000
1.29288605,-37.48096000
1.29483905,-43.17408000
1.29679205,-47.77331000
1.29874505,-46.29719000
1.30069805,-46.11729000
1.30265105,-46.95795000
1.30460405,-49.74123000
1.30655705,-45.80404000
1.30851005,-43.70955000
1.31046305,-43.67382000
1.31241605,-44.37376000
1.31436905,-47.84511000
1.31632205,-45.01343000
1.31827505,-42.32231000
1.32022805,-42.09250000
1.32218105,-42.49799000
1.32413405,-45.94257000
1.32608705,-46.34915000
1.32804005,-43.41789000
1.32999305,-43.07611000
1.33194605,-43.31586000
1.33389905,-46.31908000
1.33585205,-49.24107000
1.33780505,-46.58270000
1.33975805,-46.21450000
1.34171105,-46.39112000
1.34366405,-47.66284000
1.34561705,-41.63894000
1.34757005,-37.23257000
1.34952305,-36.58858000
1.35147605,-36.68751000
1.35342905,-38.86396000
1.35538205,-46.60341000
1.35733505,-54.42421000
1.35928805,-53.84493000
1.36124105,-53.72234000
1.36319405,-54.07431000
1.36514705,-45.97771000
1.36710005,-40.12806000
1.36905305,-38.87862000
1.37100605,-38.88221000
1.37295905,-40.18828000
1.37491205,-45.16795000
1.37686505,-44.43073000
1.37881805,-42.88580000
1.38077105,-42.82917000
1.38272405,-43.80219000
1.38467705,-49.19976000
1.38663005,-61.01149000
1.38858305,-63.35122000
1.39053605,-62.36324000
1.39248905,-61.97791000
1.39444205,-54.15333000
1.39639505,-45.90513000
1.39834805,-43.37281000
1.40030105,-43.20380000
1.40225405,-43.62294000
1.40420705,-46.00765000
1.40616005,-41.70696000
1.40811305,-38.72146000
1.41006605,-38.46604000
1.41201905,-38.77409000
1.41397205,-42.11583000
1.41592505,-51.48603000
1.41787805,-57.52353000
1.41983105,-57.15794000
1.42178405,-57.31462000
1.42373705,-52.20733000
1.42569005,-41.99977000
1.42764305,-37.79509000
1.42959605,-37.25385000
1.43154905,-37.41194000
1.43350205,-39.73945000
1.43545505,-46.19831000
1.43740805,-45.97554000
1.43936105,-45.23915000
1.44131405,-45.34056000
1.44326705,-47.18967000
1.44522005,-50.24647000
1.44717305,-46.61204000
1.44912605,-45.59041000
1.45107905,-45.76198000
1.45303205,-47.28229000
1.45498505,-48.59600000
1.45693805,-43.43620000
1.45889105,-41.92811000
1.46084405,-41.87233000
1.46279705,-42.91280000
1.46475005,-46.96018000
1.46670305,-44.92176000
1.46865605,-43.14368000
1.47060905,-43.10297000
1.47256205,-43.90991000
1.47451505,-48.32611000
1.47646805,-49.25479000
1.47842105,-47.07567000
1.48037405,-46.88108000
1.48232705,-47.26600000
1.48428005,-47.27077000
1.48623305,-40.33498000
1.48818605,-37.46185000
1.49013905,-37.25268000
1.49209205,-37.63805000
1.49404505,-41.24302000
1.49599805,-50.30493000
1.49795105,-52.20818000
1.49990405,-51.76604000
1.50185705,-51.93890000
1.50381005,-52.48407000
1.50576305,-44.77489000
1.50771605,-40.67255000
1.50966905,-40.15337000
1.51162205,-40.28063000
1.51357505,-42.69987000
1.51552805,-46.42893000
1.51748105,-43.12412000
1.51943405,-42.30009000
1.52138705,-42.32141000
1.52334005,-44.23149000
1.52529305,-51.27999000
1.52724605,-57.89343000
1.52919905,-58.02742000
1.53115205,-58.56826000
1.53310505,-59.51264000
1.53505805,-50.90553000
1.53701105,-44.60951000
1.53896405,-43.20660000
1.54091705,-43.20771000
1.54287005,-44.33885000
1.54482305,-45.87318000
1.54677605,-40.75325000
1.54872905,-39.00086000
1.55068205,-38.94570000
1.55263505,-39.81771000
1.55458805,-44.90156000
1.55654105,-56.52977000
1.55849405,-61.15502000
1.56044705,-61.20753000
1.56240005,-60.53972000
1.56435306,-49.52970000
1.56630606,-40.96132000
1.56825906,-38.28265000
1.57021206,-38.14598000
1.57216506,-38.58872000
1.57411806,-42.28941000
1.57607106,-47.01592000
1.57802406,-44.86140000
1.57997706,-44.56120000
1.58193006,-44.85281000
1.58388306,-47.93034000
1.58583606,-50.92355000
1.58778906,-47.94913000
1.58974206,-47.49006000
1.59169506,-47.69455000
1.59364806,-49.76214000
1.59560106,-46.63464000
1.59755406,-42.35386000
1.59950706,-41.68220000
1.60146006,-41.73931000
1.60341306,-43.74632000
1.60536606,-47.05167000
1.60731906,-43.88302000
1.60927206,-43.00064000
1.61122506,-43.07098000
1.61317806,-44.76074000
1.61513106,-49.89843000
1.61708406,-48.56541000
1.61903706,-47.28482000
1.62099006,-47.25912000
1.62294306,-48.39466000
1.62489606,-45.92217000
1.62684906,-39.61413000
1.62880206,-37.95171000
1.63075506,-37.90453000
1.63270806,-38.84750000
1.63466106,-44.05069000
1.63661406,-50.77127000
1.63856706,-49.78176000
1.64052006,-49.69060000
1.64247306,-50.47959000
1.64442606,-50.56987000
1.64637906,-43.90159000
1.64833206,-41.37052000
1.65028506,-41.24806000
1.65223806,-41.73347000
1.65419106,-45.26411000
1.65614406,-45.03776000
1.65809706,-42.16430000
1.66005006,-41.89159000
1.66200306,-42.22493000
1.66395606,-45.62314000
1.66590906,-54.06120000
1.66786206,-55.67439000
1.66981506,-55.80870000
1.67176806,-56.25346000
1.67372106,-56.42271000
1.67567406,-48.11147000
1.67762706,-43.76166000
1.67958006,-43.15386000
1.68153306,-43.25436000
1.68348606,-45.22292000
1.68543906,-44.58620000
1.68739206,-40.20195000
1.68934506,-39.40927000
1.69129806,-39.50055000
1.69325106,-41.33103000
1.69520406,-48.49377000
1.69715706,-61.85709000
1.69911006,-64.52939000
1.70106306,-64.90435000
1.70301606,-60.60102000
1.70496906,-46.90444000
1.70692206,-40.37846000
1.70887506,-38.87025000
1.71082806,-38.89266000
1.71278106,-40.00411000
1.71473406,-45.03374000
1.71668706,-45.82414000
1.71864006,-43.98540000
1.72059306,-43.87833000
1.72254606,-44.60372000
1.72449906,-49.01487000
1.72645206,-51.67489000
1.72840506,-49.66755000
1.73035806,-49.49031000
1.73231106,-49.98139000
1.73426406,-51.09428000
1.73621706,-44.61602000
1.73817006,-41.67916000
1.74012306,-41.47614000
1.74207606,-41.83656000
1.74402906,-45.10860000
1.74598206,-46.45226000
1.74793506,-43.45097000
1.74988806,-43.10537000
1.75184106,-43.34564000
1.75379406,-46.22391000
1.75574706,-50.90706000
1.75770006,-48.51517000
1.75965306,-47.89923000
1.76160606,-47.90911000
1.76355906,-49.31716000
1.76551206,-44.07274000
1.76746506,-39.40041000
1.76941806,-38.62237000
1.77137106,-38.65235000
1.77332406,-40.56232000
1.77527706,-47.35378000
1.77723006,-50.34229000
1.77918306,-49.44434000
1.78113606,-49.40984000
1.78308906,-50.74811000
1.78504206,-49.43361000
1.78699506,-43.76419000
1.78894806,-42.34567000
1.79090106,-42.34199000
1.79285406,-43.47183000
1.79480706,-46.79684000
1.79676006,-43.22980000
1.79871306,-41.47891000
1.80066606,-41.44384000
1.80261906,-42.31861000
1.80457206,-47.28506000
1.80652506,-54.15615000
1.80847806,-53.20274000
1.81043106,-53.11625000
1.81238406,-53.71852000
1.81433706,-53.44259000
1.81629006,-46.07023000
1.81824306,-43.27778000
1.82019606,-43.06615000
1.82214906,-43.43658000
1.82410206,-46.14907000
1.82605506,-43.23240000
1.82800806,-40.11410000
1.82996106,-39.84287000
1.83191406,-40.08174000
1.83386706,-43.15047000
1.83582006,-52.46097000
1.83777306,-69.02371000
1.83972606,-73.60980000
1.84167906,-72.20324000
1.84363206,-56.35487000
1.84558506,-44.81223000
1.84753806,-40.28496000
1.84949107,-39.62614000
1.85144407,-39.71009000
1.85339707,-41.77026000
1.85535007,-46.58476000
1.85730307,-44.26627000
1.85925607,-43.36228000
1.86120907,-43.40166000
1.86316207,-45.02261000
1.86511507,-51.11503000
1.86706807,-53.16106000
1.86902107,-52.00219000
1.87097407,-52.06504000
1.87292707,-53.29137000
1.87488007,-49.56638000
1.87683307,-42.98520000
1.87878607,-41.32343000
1.88073907,-41.33290000
1.88269207,-42.29040000
1.88464507,-46.52656000
1.88659807,-45.15336000
1.88855107,-43.16397000
1.89050407,-43.08878000
1.89245707,-43.75876000
1.89441007,-48.03194000
1.89636307,-50.70793000
1.89831607,-48.58116000
1.90026907,-48.42853000
1.90222207,-48.82389000
1.90417507,-49.24541000
1.90612807,-42.45947000
1.90808107,-39.38459000
1.91003407,-39.14085000
1.91198707,-39.43205000
1.91394007,-42.69450000
1.91589307,-49.23193000
1.91784607,-48.12996000
1.91979907,-47.69564000
1.92175207,-47.85944000
1.92370507,-50.09872000
1.92565807,-48.15940000
1.92761107,-44.10484000
1.92956407,-43.48663000
1.93151707,-43.56647000
1.93347007,-45.63012000
1.93542307,-46.35365000
1.93737607,-41.98665000
1.93932907,-41.09645000
1.94128207,-41.11315000
1.94323507,-42.81057000
1.94518807,-49.21149000
1.94714107,-52.62139000
1.94909407,-51.74290000
1.95104707,-51.71365000
1.95300007,-52.76781000
1.95495307,-50.40161000
1.95690607,-44.59688000
1.95885907,-43.10609000
1.96081207,-43.09353000
1.96276507,-44.08961000
1.96471807,-46.48701000
1.96667107,-42.06249000
1.96862407,-40.14661000
1.97057707,-40.09114000
1.97253007,-40.86660000
1.97448307,-45.65291000
1.97643607,-57.74674000
1.97838907,-71.32413000
1.98034207,-72.10136000
1.98229507,-68.69603000
1.98424807,-52.69329000
1.98620107,-43.65630000
1.98815407,-40.72812000
1.99010707,-40.51832000
1.99206007,-40.85480000
1.99401307,-44.11830000
1.99596607,-46.13929000
1.99791907,-43.22266000
1.99987207,-42.86051000
2.00182507,-43.07473000
2.00377807,-45.98462000
2.00573107,-53.71200000
2.00768407,-54.75856000
2.00963707,-54.27679000
2.01159007,-54.57754000
2.01354307,-55.07022000
2.01549607,-46.95148000
2.01744907,-42.13156000
2.01940207,-41.32770000
2.02135507,-41.41140000
2.02330807,-43.32244000
2.02526107,-47.66122000
2.02721407,-44.87270000
2.02916707,-43.77956000
2.03112007,-43.76855000
2.03307307,-45.22406000
2.03502607,-50.44504000
2.03697907,-50.81277000
2.03893207,-49.73283000
2.04088507,-49.91670000
2.04283807,-51.17748000
2.04479107,-49.34064000
2.04674407,-42.65833000
2.04869707,-40.76864000
2.05065007,-40.65300000
2.05260307,-41.44389000
2.05455607,-46.20029000
2.05650907,-50.06960000
2.05846207,-48.33022000
2.06041507,-48.19473000
2.06236807,-48.82199000
2.06432107,-52.21811000
2.06627407,-49.52230000
2.06822707,-46.78994000
2.07018007,-46.57528000
2.07213307,-46.96603000
2.07408607,-49.81441000
2.07603907,-46.55311000
2.07799207,-43.26049000
2.07994507,-42.91808000
2.08189807,-43.14967000
2.08385107,-46.22364000
2.08580407,-53.56757000
2.08775707,-53.61215000
2.08971007,-53.05801000
2.09166307,-53.19107000
2.09361607,-55.30470000
2.09556907,-51.82499000
2.09752207,-47.43703000
2.09947507,-46.76943000
2.10142807,-46.84281000
2.10338107,-48.67185000
2.10533407,-49.61968000
2.10728707,-45.48626000
2.10924007,-44.58530000
2.11119307,-44.62338000
2.11314607,-46.16811000
2.11509907,-52.64377000
2.11705207,-64.31729000
2.11900507,-68.03063000
2.12095807,-69.24844000
2.12291107,-67.86517000
2.12486407,-55.44037000
2.12681707,-48.67205000
2.12877007,-47.00768000
2.13072307,-47.03141000
2.13267607,-48.02000000
2.13462908,-52.28882000
2.13658208,-50.95266000
2.13853508,-49.01112000
2.14048808,-48.99253000
2.14244108,-49.66857000
2.14439408,-54.29214000
2.14634708,-64.60099000
2.14830008,-64.72397000
2.15025308,-64.28142000
2.15220608,-64.95442000
2.15415908,-62.06539000
2.15611208,-53.58438000
2.15806508,-50.47238000
2.16001808,-50.25426000
2.16197108,-50.56841000
2.16392408,-53.80485000
2.16587708,-57.33927000
2.16783008,-54.52391000
2.16978308,-53.99233000
2.17173608,-54.01457000
2.17368908,-56.69764000
2.17564208,-64.02999000
2.17759508,-63.88508000
2.17954808,-62.64776000
2.18150108,-62.04878000
2.18345408,-63.05568000
2.18540708,-59.08177000
2.18736008,-54.42713000
2.18931308,-53.60792000
2.19126608,-53.83141000
2.19321908,-55.90549000
2.19517208,-62.50907000
2.19712508,-61.96684000
2.19907808,-60.49622000
2.20103108,-60.26829000
2.20298408,-61.51956000
2.20493708,-66.09988000
2.20689008,-64.79160000
2.20884308,-63.00722000
2.21079608,-62.66819000
2.21274908,-63.53427000
2.21470208,-65.88564000
2.21665508,-61.54357000
2.21860808,-59.38983000
2.22056108,-59.16010000
2.22251408,-59.85535000
2.22446708,-64.28918000
2.22642008,-71.64748000
2.22837308,-71.84602000
2.23032608,-72.70080000
2.23227908,-75.66024000
2.23423208,-81.76463000
2.23618508,-72.46600000
2.23813808,-67.83302000
2.24009108,-66.57353000
2.24204408,-66.64076000
2.24399708,-69.03091000
2.24595008,-71.29900000
2.24790308,-70.77529000
2.24985608,-71.53914000
2.25180908,-72.68443000
2.25376208,-78.22305000
2.25571508,-84.01947000
2.25766808,-80.86824000
2.25962108,-83.96288000
2.26157408,-88.61584000
2.26352708,-86.38043000
2.26548008,-79.87317000
2.26743308,-74.61227000
2.26938608,-72.83398000
2.27133908,-71.60126000
2.27329208,-71.82824000
2.27524508,-76.29922000
2.27719808,-85.97052000
2.27915108,-85.14042000
2.28110408,-80.06674000
2.28305708,-77.47080000
2.28501008,-77.91628000
2.28696308,-79.60281000
2.28891608,-81.90385000
2.29086908,-81.45837000
2.29282208,-78.61135000
2.29477508,-76.66502000
2.29672808,-74.71030000
2.29868108,-73.82241000
2.30063408,-75.15177000
2.30258708,-79.23402000
2.30454008,-83.68183000
2.30649308,-83.97419000
2.30844608,-87.22092000
2.31039908,-90.84106000
2.31235208,-87.87772000
2.31430508,-90.59335000
2.31625808,-114.48100000
2.31821108,-90.13271000
2.32016408,-82.79199000
2.32211708,-80.22285000
2.32407008,-82.19881000
2.32602308,-84.59622000
2.32797608,-80.24409000
2.32992908,-76.26166000
2.33188208,-75.68686000
2.33383508,-76.86316000
2.33578808,-79.43238000
2.33774108,-86.82064000
2.33969408,-86.79160000
2.34164708,-82.97478000
2.34360008,-81.42651000
2.34555308,-80.64958000
2.34750608,-81.16641000
2.34945908,-79.98988000
2.35141208,-79.36509000
2.35336508,-80.53627000
2.35531808,-82.88109000
2.35727108,-81.52274000
2.35922408,-78.44995000
2.36117708,-75.41329000
2.36313008,-74.21806000
2.36508308,-74.86975000
2.36703608,-76.25775000
2.36898908,-79.10939000
2.37094208,-83.15658000
2.37289508,-87.18024000
2.37484808,-86.56779000
2.37680108,-88.67751000
2.37875408,-84.01208000
2.38070708,-80.37643000
2.38266008,-79.57918000
2.38461308,-83.35663000
2.38656608,-91.84849000
2.38851908,-85.97670000
2.39047208,-82.74702000
2.39242508,-80.95853000
2.39437808,-84.70401000
2.39633108,-91.48693000
2.39828408,-87.99812000
2.40023708,-84.80193000
2.40219008,-84.94452000
2.40414308,-83.43911000
2.40609608,-84.35264000
2.40804908,-92.02426000
2.41000208,-89.70210000
2.41195508,-86.19075000
2.41390808,-83.29837000
2.41586108,-81.67611000
2.41781409,-82.60865000
2.41976709,-87.86620000
2.42172009,-88.40797000
2.42367309,-81.88002000
2.42562609,-78.95421000
2.42757909,-78.82156000
2.42953209,-81.88457000
2.43148509,-84.85894000
2.43343809,-89.56085000
2.43539109,-89.15668000
2.43734409,-80.90298000
2.43929709,-77.54417000
2.44125009,-76.39816000
2.44320309,-75.54672000
2.44515609,-75.91956000
2.44710909,-78.18452000
2.44906209,-85.18651000
2.45101509,-89.90088000
2.45296809,-80.85165000
2.45492109,-76.99457000
2.45687409,-76.32815000
2.45882709,-78.18073000
2.46078009,-78.22206000
2.46273309,-79.02211000
2.46468609,-85.23902000
2.46663909,-90.27457000
2.46859209,-86.95687000
2.47054509,-85.23602000
2.47249809,-83.61612000
2.47445109,-82.66455000
2.47640409,-83.03758000
2.47835709,-81.68884000
2.48031009,-80.31261000
2.48226309,-79.23832000
2.48421609,-77.47470000
2.48616909,-76.07207000
2.48812209,-75.81200000
2.49007509,-75.96867000
2.49202809,-76.04793000
2.49398109,-76.85318000
2.49593409,-77.86238000
2.49788709,-78.75944000
2.49984009,-78.59740000
2.50179309,-76.70442000
2.50374609,-74.97668000
2.50569909,-74.61667000
2.50765209,-74.98647000
2.50960509,-75.34023000
2.51155809,-75.16126000
2.51351109,-74.91636000
2.51546409,-75.49284000
2.51741709,-77.19936000
2.51937009,-79.99493000
2.52132309,-81.65843000
2.52327609,-79.32191000
2.52522909,-77.00021000
2.52718209,-75.29590000
2.52913509,-74.14370000
2.53108809,-73.86525000
2.53304109,-73.61339000
2.53499409,-73.25188000
2.53694709,-73.65304000
2.53890009,-74.44307000
2.54085309,-75.82366000
2.54280609,-76.47546000
2.54475909,-76.69104000
2.54671209,-76.02403000
2.54866509,-75.27959000
2.55061809,-75.68785000
2.55257109,-77.20681000
2.55452409,-79.16310000
2.55647709,-82.14786000
2.55843009,-89.40814000
2.56038309,-84.37957000
2.56233609,-80.43341000
2.56428909,-79.93275000
2.56624209,-83.74569000
2.56819509,-84.85557000
2.57014809,-80.68752000
2.57210109,-80.74723000
2.57405409,-86.30933000
2.57600709,-87.67700000
2.57796009,-79.73220000
2.57991309,-76.85966000
2.58186609,-75.93410000
2.58381909,-75.72094000
2.58577209,-76.32691000
2.58772509,-76.28041000
2.58967809,-76.60448000
2.59163109,-78.05010000
2.59358409,-79.31520000
2.59553709,-78.59480000
2.59749009,-79.47230000
2.59944309,-80.74060000
2.60139609,-80.93246000
2.60334909,-82.26025000
2.60530209,-84.82972000
2.60725509,-89.18668000
2.60920809,-92.69650000
2.61116109,-96.46791000
2.61311409,-84.26545000
2.61506709,-80.24467000
2.61702009,-80.93346000
2.61897309,-83.46721000
2.62092609,-84.70173000
2.62287909,-86.63095000
2.62483209,-85.45478000
2.62678509,-86.41817000
2.62873809,-85.13634000
2.63069109,-81.65894000
2.63264409,-79.51226000
2.63459709,-79.23887000
2.63655009,-82.79240000
2.63850309,-88.79693000
2.64045609,-88.02290000
2.64240909,-81.86011000
2.64436209,-80.88158000
2.64631509,-81.77927000
2.64826809,-82.79591000
2.65022109,-84.90981000
2.65217409,-93.98873000
2.65412709,-90.85811000
2.65608009,-84.65417000
2.65803309,-83.74534000
2.65998609,-81.37763000
2.66193909,-77.04308000
2.66389209,-75.46761000
2.66584509,-76.61156000
2.66779809,-78.10430000
2.66975109,-79.75913000
2.67170409,-84.42657000
2.67365709,-89.26662000
2.67561009,-85.56442000
2.67756309,-82.85620000
2.67951609,-84.45409000
2.68146909,-86.45210000
2.68342209,-85.31754000
2.68537509,-82.03797000
2.68732809,-78.30331000
2.68928109,-77.76549000
2.69123409,-80.72182000
2.69318709,-84.56035000
2.69514009,-89.03732000
2.69709309,-94.82248000
2.69904609,-90.77182000
2.70099909,-85.27750000
2.70295210,-81.89388000
2.70490510,-80.74001000
2.70685810,-79.27802000
2.70881110,-78.53105000
2.71076410,-77.21672000
2.71271710,-74.45262000
2.71467010,-72.89593000
2.71662310,-74.10075000
2.71857610,-76.49362000
2.72052910,-80.18554000
2.72248210,-93.68499000
2.72443510,-88.77496000
2.72638810,-85.65368000
2.72834110,-83.75894000
2.73029410,-84.69235000
2.73224710,-86.44189000
2.73420010,-94.24163000
2.73615310,-91.19466000
2.73810610,-87.00110000
2.74005910,-83.64082000
2.74201210,-79.83524000
2.74396510,-78.71486000
2.74591810,-78.16447000
2.74787110,-76.88203000
2.74982410,-77.86025000
2.75177710,-80.84049000
2.75373010,-82.77655000
2.75568310,-83.24854000
2.75763610,-81.76357000
2.75958910,-78.67753000
2.76154210,-77.44511000
2.76349510,-80.30122000
2.76544810,-90.08601000
2.76740110,-90.88774000
2.76935410,-83.16283000
2.77130710,-78.27113000
2.77326010,-77.05812000
2.77521310,-79.91622000
2.77716610,-83.02010000
2.77911910,-84.59242000
2.78107210,-87.33155000
2.78302510,-86.48099000
2.78497810,-82.19724000
2.78693110,-79.20434000
2.78888410,-77.82775000
2.79083710,-77.80303000
2.79279010,-77.46177000
2.79474310,-78.46776000
2.79669610,-82.07579000
2.79864910,-84.85219000
2.80060210,-87.78919000
2.80255510,-88.49118000
2.80450810,-85.98858000
2.80646110,-84.40977000
2.80841410,-82.16358000
2.81036710,-82.28683000
2.81232010,-85.81569000
2.81427310,-85.86951000
2.81622610,-83.19659000
2.81817910,-79.72639000
2.82013210,-77.41406000
2.82208510,-76.66989000
2.82403810,-77.51306000
2.82599110,-81.52809000
2.82794410,-96.65265000
2.82989710,-86.28765000
2.83185010,-81.77113000
2.83380310,-80.62312000
2.83575610,-82.29606000
2.83770910,-81.31459000
2.83966210,-77.50674000
2.84161510,-76.03960000
2.84356810,-75.55152000
2.84552110,-76.97485000
2.84747410,-80.34580000
2.84942710,-84.34296000
2.85138010,-85.84197000
2.85333310,-81.88333000
2.85528610,-81.77353000
2.85723910,-80.02056000
2.85919210,-77.32890000
2.86114510,-77.92916000
2.86309810,-79.77846000
2.86505110,-80.16793000
2.86700410,-79.57587000
2.86895710,-82.05168000
2.87091010,-93.52559000
2.87286310,-90.97853000
2.87481610,-83.55286000
2.87676910,-78.98672000
2.87872210,-77.29675000
2.88067510,-77.22179000
2.88262810,-78.35823000
2.88458110,-79.48294000
2.88653410,-80.35985000
2.88848710,-79.47762000
2.89044010,-77.90607000
2.89239310,-78.91189000
2.89434610,-83.93395000
2.89629910,-86.28044000
2.89825210,-83.80411000
2.90020510,-81.89686000
2.90215810,-83.74368000
2.90411110,-84.05628000
2.90606410,-83.27351000
2.90801710,-85.52870000
2.90997010,-90.80632000
2.91192310,-85.90253000
2.91387610,-80.44666000
2.91582910,-77.95285000
2.91778210,-78.40462000
2.91973510,-80.01496000
2.92168810,-81.56104000
2.92364110,-85.02145000
2.92559410,-96.29546000
2.92754710,-91.15974000
2.92950010,-84.14261000
2.93145310,-82.68800000
2.93340610,-85.09632000
2.93535910,-94.95152000
2.93731210,-91.83739000
2.93926510,-83.93811000
2.94121810,-82.38091000
2.94317110,-83.02093000
2.94512410,-81.21998000
2.94707710,-81.12679000
2.94903010,-83.01550000
2.95098310,-83.14460000
2.95293610,-83.05932000
2.95488910,-84.99238000
2.95684210,-86.23931000
2.95879510,-86.84296000
2.96074810,-81.06827000
2.96270110,-78.85023000
2.96465410,-80.56320000
2.96660710,-81.23984000
2.96856010,-80.35493000
2.97051310,-81.34411000
2.97246610,-80.98525000
2.97441910,-78.25459000
2.97637210,-78.29308000
2.97832510,-79.83603000
2.98027810,-80.89378000
2.98223110,-82.60439000
2.98418410,-84.88141000
2.98613710,-90.18838000
2.98809011,-100.54430000
2.99004311,-100.68330000
2.99199611,-89.75816000
2.99394911,-84.69443000
2.99590211,-80.99892000
2.99785511,-79.16259000
2.99980811,-76.51755000
3.00176111,-76.53326000
3.00371411,-80.02002000
3.00566711,-84.59084000
3.00762011,-94.25472000
3.00957311,-81.85703000
3.01152611,-78.56097000
3.01347911,-78.05147000
3.01543211,-78.20231000
3.01738511,-77.82449000
3.01933811,-76.61895000
3.02129111,-75.97375000
3.02324411,-76.19958000
3.02519711,-77.78660000
3.02715011,-83.91143000
3.02910311,-98.10989000
3.03105611,-85.17269000
3.03300911,-83.52405000
3.03496211,-88.51669000
3.03691511,-96.73019000
3.03886811,-88.40923000
3.04082111,-87.32124000
3.04277411,-90.82359000
3.04472711,-91.66907000
3.04668011,-88.56945000
3.04863311,-84.25764000
3.05058611,-80.79865000
3.05253911,-82.68967000
3.05449211,-84.86357000
3.05644511,-82.76524000
3.05839811,-82.34196000
3.06035111,-81.66030000
3.06230411,-80.08463000
3.06425711,-79.77055000
3.06621011,-79.19587000
3.06816311,-77.65931000
3.07011611,-76.84660000
3.07206911,-76.71651000
3.07402211,-78.03712000
3.07597511,-79.48621000
3.07792811,-79.50246000
3.07988111,-82.91113000
3.08183411,-85.92108000
3.08378711,-84.46380000
3.08574011,-85.30612000
3.08769311,-85.88876000
3.08964611,-81.53160000
3.09159911,-79.22575000
3.09355211,-79.17799000
3.09550511,-81.19347000
3.09745811,-86.45815000
3.09941111,-86.94170000
3.10136411,-85.78574000
3.10331711,-93.02518000
3.10527011,-88.04680000
3.10722311,-85.12799000
3.10917611,-85.35000000
3.11112911,-82.51933000
3.11308211,-79.34689000
3.11503511,-77.28484000
3.11698811,-76.87329000
3.11894111,-79.03214000
3.12089411,-81.12968000
3.12284711,-79.29219000
3.12480011,-78.06128000
3.12675311,-78.94521000
3.12870611,-80.67410000
3.13065911,-82.79186000
3.13261211,-82.60840000
3.13456511,-79.83846000
3.13651811,-78.47749000
3.13847111,-77.90984000
3.14042411,-78.20519000
3.14237711,-80.33512000
3.14433011,-83.89465000
3.14628311,-86.66942000
3.14823611,-84.59927000
3.15018911,-80.35811000
3.15214211,-77.58147000
3.15409511,-76.61530000
3.15604811,-77.68851000
3.15800111,-81.50582000
3.15995411,-87.08867000
3.16190711,-84.37048000
3.16386011,-79.42297000
3.16581311,-76.36413000
3.16776611,-75.26089000
3.16971911,-75.62830000
3.17167211,-77.25164000
3.17362511,-82.73711000
3.17557811,-91.56479000
3.17753111,-83.50758000
3.17948411,-79.23478000
3.18143711,-78.68318000
3.18339011,-81.74023000
3.18534311,-87.07030000
3.18729611,-94.13712000
3.18924911,-83.23399000
3.19120211,-85.04159000
3.19315511,-87.46173000
3.19510811,-86.45122000
3.19706111,-85.39754000
3.19901411,-84.20836000
3.20096711,-83.59799000
3.20292011,-79.64890000
3.20487311,-78.14227000
3.20682611,-79.60624000
3.20877911,-84.33754000
3.21073211,-93.00286000
3.21268511,-96.69778000
3.21463811,-87.69957000
3.21659111,-84.55291000
3.21854411,-84.09636000
3.22049711,-84.30380000
3.22245011,-85.62808000
3.22440311,-84.27583000
3.22635611,-80.42010000
3.22830911,-77.60030000
3.23026211,-77.48185000
3.23221511,-79.49902000
3.23416811,-83.97025000
3.23612111,-96.53698000
3.23807411,-84.55700000
3.24002711,-83.87944000
3.24198011,-85.41699000
3.24393311,-85.62160000
3.24588611,-84.17647000
3.24783911,-85.77147000
3.24979211,-86.85178000
3.25174511,-79.68266000
3.25369811,-77.19742000
3.25565111,-76.08745000
3.25760411,-76.39858000
3.25955711,-77.17469000
3.26151011,-77.91358000
3.26346311,-78.88071000
3.26541611,-80.31473000
3.26736911,-83.93162000
3.26932211,-87.51434000
3.27127512,-84.80231000
3.27322812,-80.93364000
3.27518112,-74.33699000
3.27713412,-71.70551000
3.27908712,-71.77502000
3.28104012,-72.86172000
3.28299312,-78.94221000
3.28494612,-86.96351000
3.28689912,-81.52133000
3.28885212,-86.32895000
3.29080512,-100.09800000
3.29275812,-85.21840000
3.29471112,-82.77853000
3.29666412,-80.81825000
3.29861712,-78.28444000
3.30057012,-77.69960000
3.30252312,-77.24558000
3.30447612,-75.28734000
3.30642912,-74.94215000
3.30838212,-76.43803000
3.31033512,-79.58712000
3.31228812,-81.69823000
3.31424112,-83.31750000
3.31619412,-83.84729000
3.31814712,-82.41174000
3.32010012,-81.82967000
3.32205312,-82.02136000
3.32400612,-84.49078000
3.32595912,-82.75478000
3.32791212,-77.72799000
3.32986512,-76.03222000
3.33181812,-74.96214000
3.33377112,-74.07292000
3.33572412,-73.16167000
3.33767712,-72.73512000
3.33963012,-73.41332000
3.34158312,-75.24556000
3.34353612,-78.62439000
3.34548912,-83.11469000
3.34744212,-87.07511000
3.34939512,-87.77730000
3.35134812,-87.64944000
3.35330112,-90.54795000
3.35525412,-95.30242000
3.35720712,-85.77110000
3.35916012,-79.98172000
3.36111312,-79.10789000
3.36306612,-80.14187000
3.36501912,-85.11145000
3.36697212,-82.15084000
3.36892512,-77.91693000
3.37087812,-76.72691000
3.37283112,-77.73145000
3.37478412,-80.14770000
3.37673712,-84.53871000
3.37869012,-89.78065000
3.38064312,-92.99037000
3.38259612,-88.31033000
3.38454912,-83.49969000
3.38650212,-82.51347000
3.38845512,-83.33110000
3.39040812,-83.45132000
3.39236112,-84.76019000
3.39431412,-83.87345000
3.39626712,-82.72963000
3.39822012,-82.25381000
3.40017312,-81.83602000
3.40212612,-81.29820000
3.40407912,-77.96272000
3.40603212,-76.27853000
3.40798512,-76.67499000
3.40993812,-76.91600000
3.41189112,-78.33572000
3.41384412,-85.31194000
3.41579712,-88.64857000
3.41775012,-78.92844000
3.41970312,-75.13496000
3.42165612,-73.77402000
3.42360912,-73.26089000
3.42556212,-73.19762000
3.42751512,-73.94257000
3.42946812,-76.41187000
3.43142112,-81.73997000
3.43337412,-94.81113000
3.43532712,-96.39972000
3.43728012,-91.86141000
3.43923312,-85.47923000
3.44118612,-83.02952000
3.44313912,-82.21429000
3.44509212,-82.09545000
3.44704512,-81.76709000
3.44899812,-81.34834000
3.45095112,-81.40594000
3.45290412,-80.60764000
3.45485712,-82.60975000
3.45681012,-88.90842000
3.45876312,-84.09248000
3.46071612,-81.24348000
3.46266912,-80.68648000
3.46462212,-82.24600000
3.46657512,-86.72752000
3.46852812,-97.54810000
3.47048112,-82.80568000
3.47243412,-78.12385000
3.47438712,-75.70884000
3.47634012,-75.78723000
3.47829312,-78.49043000
3.48024612,-84.80794000
3.48219912,-93.61156000
3.48415212,-85.25814000
3.48610512,-84.70443000
3.48805812,-87.09647000
3.49001112,-87.23859000
3.49196412,-92.23784000
3.49391712,-90.24854000
3.49587012,-82.84348000
3.49782312,-77.79831000
3.49977612,-74.40323000
3.50172912,-74.17695000
3.50368212,-74.92192000
3.50563512,-75.92702000
3.50758812,-77.56898000
3.50954112,-78.20355000
3.51149412,-77.91284000
3.51344712,-77.39104000
3.51540012,-78.25845000
3.51735312,-79.88403000
3.51930612,-79.95091000
3.52125912,-78.96957000
3.52321212,-77.63426000
3.52516512,-77.55887000
3.52711812,-81.41315000
3.52907112,-102.42340000
3.53102412,-85.57004000
3.53297712,-82.85202000
3.53493012,-84.13499000
3.53688312,-84.42414000
3.53883612,-83.56785000
3.54078912,-81.82968000
3.54274212,-77.87115000
3.54469512,-75.41235000
3.54664812,-75.96774000
3.54860112,-78.43146000
3.55055412,-84.73388000
3.55250712,-109.87690000
3.55446012,-96.69879000
3.55641313,-91.08449000
3.55836613,-86.66137000
3.56031913,-83.49007000
3.56227213,-81.56395000
3.56422513,-80.18430000
3.56617813,-80.09416000
3.56813113,-80.84454000
3.57008413,-80.49286000
3.57203713,-81.85202000
3.57399013,-84.80935000
3.57594313,-91.60324000
3.57789613,-89.32347000
3.57984913,-82.87596000
3.58180213,-79.30238000
3.58375513,-80.48942000
3.58570813,-87.04929000
3.58766113,-89.41573000
3.58961413,-84.44241000
3.59156713,-82.34131000
3.59352013,-80.66410000
3.59547313,-78.48940000
3.59742613,-77.24525000
3.59937913,-77.44197000
3.60133213,-78.09229000
3.60328513,-79.22192000
3.60523813,-81.10488000
3.60719113,-81.07438000
3.60914413,-80.58777000
3.61109713,-79.91592000
3.61305013,-78.00097000
3.61500313,-77.79204000
3.61695613,-78.90247000
3.61890913,-77.92078000
3.62086213,-76.36348000
3.62281513,-74.57498000
3.62476813,-74.18203000
3.62672113,-75.68694000
3.62867413,-76.08933000
3.63062713,-75.14934000
3.63258013,-75.48447000
3.63453313,-77.04240000
3.63648613,-78.17153000
3.63843913,-79.58627000
3.64039213,-83.53783000
3.64234513,-90.85005000
3.64429813,-84.79045000
3.64625113,-80.40329000
3.64820413,-76.88090000
3.65015713,-77.15353000
3.65211013,-81.52302000
3.65406313,-88.00805000
3.65601613,-89.30983000
3.65796913,-82.87354000
3.65992213,-79.04928000
3.66187513,-77.15903000
3.66382813,-77.32244000
3.66578113,-79.64935000
3.66773413,-82.33604000
3.66968713,-84.62180000
3.67164013,-85.97302000
3.67359313,-84.95007000
3.67554613,-80.70784000
3.67749913,-78.49165000
3.67945213,-76.05190000
3.68140513,-75.45638000
3.68335813,-77.70455000
3.68531113,-83.23508000
3.68726413,-129.16460000
3.68921713,-84.56550000
3.69117013,-79.93163000
3.69312313,-78.15336000
3.69507613,-79.53189000
3.69702913,-82.11944000
3.69898213,-82.82631000
3.70093513,-78.06522000
3.70288813,-77.09645000
3.70484113,-79.14254000
3.70679413,-82.64787000
3.70874713,-88.48140000
3.71070013,-86.10603000
3.71265313,-80.80314000
3.71460613,-79.56895000
3.71655913,-79.14589000
3.71851213,-81.75274000
3.72046513,-90.26019000
3.72241813,-121.20840000
3.72437113,-93.65588000
3.72632413,-87.36782000
3.72827713,-88.39735000
3.73023013,-91.12051000
3.73218313,-98.94393000
3.73413613,-97.49706000
3.73608913,-91.74839000
3.73804213,-88.08427000
3.73999513,-89.99837000
3.74194813,-94.24979000
3.74390113,-90.18056000
3.74585413,-88.02502000
3.74780713,-92.73404000
3.74976013,-98.05185000
3.75171313,-92.21703000
3.75366613,-81.93020000
3.75561913,-78.51748000
3.75757213,-76.49886000
3.75952513,-74.89707000
3.76147813,-75.25748000
3.76343113,-77.47456000
3.76538413,-79.81130000
3.76733713,-79.63065000
3.76929013,-81.46921000
3.77124313,-84.40050000
3.77319613,-84.90307000
3.77514913,-86.59131000
3.77710213,-91.19571000
3.77905513,-89.94714000
3.78100813,-84.20261000
3.78296113,-79.73827000
3.78491413,-77.36747000
3.78686713,-76.41419000
3.78882013,-77.83458000
3.79077313,-82.25303000
3.79272613,-92.37614000
3.79467913,-84.87400000
3.79663213,-82.86404000
3.79858513,-86.49868000
3.80053813,-90.49058000
3.80249113,-96.74327000
3.80444413,-93.38845000
3.80639713,-84.76311000
3.80835013,-82.07452000
3.81030313,-79.62988000
3.81225613,-79.09707000
3.81420913,-83.09211000
3.81616213,-94.03693000
3.81811513,-95.87231000
3.82006813,-90.53117000
3.82202113,-94.40187000
3.82397413,-92.64674000
3.82592713,-85.66187000
3.82788013,-82.45968000
3.82983313,-81.65672000
3.83178613,-83.50516000
3.83373913,-83.54854000
3.83569213,-79.85922000
3.83764513,-78.46516000
3.83959813,-78.87000000
3.84155114,-81.37978000
3.84350414,-85.81602000
3.84545714,-86.90871000
3.84741014,-86.09865000
3.84936314,-82.79791000
3.85131614,-77.38573000
3.85326914,-74.20104000
3.85522214,-73.17235000
3.85717514,-73.01751000
3.85912814,-73.86651000
3.86108114,-76.20470000
3.86303414,-79.47676000
3.86498714,-83.66940000
3.86694014,-83.80650000
3.86889314,-82.52443000
3.87084614,-85.15636000
3.87279914,-85.71213000
3.87475214,-84.90210000
3.87670514,-83.08791000
3.87865814,-82.64390000
3.88061114,-85.38520000
3.88256414,-89.45168000
3.88451714,-92.92171000
3.88647014,-91.64111000
3.88842314,-85.43044000
3.89037614,-80.92807000
3.89232914,-78.00742000
3.89428214,-78.88035000
3.89623514,-78.59166000
3.89818814,-76.68729000
3.90014114,-76.80774000
3.90209414,-78.51981000
3.90404714,-83.45573000
3.90600014,-86.90306000
3.90795314,-78.99384000
3.90990614,-78.95184000
3.91185914,-80.87440000
3.91381214,-81.71887000
3.91576514,-80.78207000
3.91771814,-80.45872000
3.91967114,-82.28323000
3.92162414,-87.52303000
3.92357714,-84.97110000
3.92553014,-80.07852000
3.92748314,-79.79385000
3.92943614,-83.04877000
3.93138914,-91.56483000
3.93334214,-93.33693000
3.93529514,-86.57800000
3.93724814,-88.06886000
3.93920114,-91.37283000
3.94115414,-88.76584000
3.94310714,-86.54220000
3.94506014,-87.09446000
3.94701314,-84.82593000
3.94896614,-84.20361000
3.95091914,-81.66595000
3.95287214,-81.23623000
3.95482514,-83.37265000
3.95677814,-81.45908000
3.95873114,-78.28632000
3.96068414,-75.97887000
3.96263714,-74.84912000
3.96459014,-75.27518000
3.96654314,-79.01640000
3.96849614,-85.63861000
3.97044914,-93.24403000
3.97240214,-101.25230000
3.97435514,-92.42309000
3.97630814,-86.14127000
3.97826114,-83.20504000
3.98021414,-83.80303000
3.98216714,-82.81461000
3.98412014,-81.86450000
3.98607314,-86.21124000
3.98802614,-86.94913000
3.98997914,-83.24594000
3.99193214,-80.33866000
3.99388514,-79.84882000
3.99583814,-84.59145000
3.99779114,-86.59421000
3.99974414,-83.17481000
4.00169714,-81.84444000
4.00365014,-80.26462000
4.00560314,-79.52651000
4.00755614,-79.89243000
4.00950914,-79.52181000
4.01146214,-78.59828000
4.01341514,-77.54997000
4.01536814,-76.93401000
4.01732114,-79.41916000
4.01927414,-91.38953000
4.02122714,-83.95361000
4.02318014,-80.48870000
4.02513314,-82.97696000
4.02708614,-82.21023000
4.02903914,-77.82079000
4.03099214,-75.90147000
4.03294514,-75.37192000
4.03489814,-76.48246000
4.03685114,-80.22096000
4.03880414,-85.52715000
4.04075714,-81.47648000
4.04271014,-77.50016000
4.04466314,-75.38990000
4.04661614,-74.56630000
4.04856914,-75.54823000
4.05052214,-77.65121000
4.05247514,-77.52525000
4.05442814,-76.27214000
4.05638114,-76.40781000
4.05833414,-77.35005000
4.06028714,-78.86324000
4.06224014,-81.83345000
4.06419314,-85.95995000
4.06614614,-83.81223000
4.06809914,-78.42506000
4.07005214,-76.30556000
4.07200514,-76.86804000
4.07395814,-79.32618000
4.07591114,-81.66536000
4.07786414,-78.83203000
4.07981714,-78.11748000
4.08177014,-80.47433000
4.08372314,-82.41072000
4.08567614,-82.63644000
4.08762914,-81.66496000
4.08958214,-77.53817000
4.09153514,-77.28982000
4.09348814,-78.13561000
4.09544114,-77.95060000
4.09739414,-79.78313000
4.09934714,-81.23931000
4.10130014,-78.42973000
4.10325314,-77.64944000
4.10520614,-80.19183000
4.10715914,-85.83618000
4.10911214,-90.48512000
4.11106514,-84.98679000
4.11301814,-80.58350000
4.11497114,-78.94641000
4.11692414,-79.64415000
4.11887714,-81.70518000
4.12083014,-85.88749000
4.12278314,-94.82758000
4.12473615,-111.95580000
4.12668915,-100.21680000
4.12864215,-91.10505000
4.13059515,-96.81576000
4.13254815,-88.84406000
4.13450115,-85.01730000
4.13645415,-83.12942000
4.13840715,-84.97573000
4.14036015,-85.87405000
4.14231315,-81.12507000
4.14426615,-80.04283000
4.14621915,-81.67981000
4.14817215,-88.33863000
4.15012515,-92.47160000
4.15207815,-84.23985000
4.15403115,-83.21046000
4.15598415,-87.15306000
4.15793715,-95.11268000
4.15989015,-81.38199000
4.16184315,-77.07229000
4.16379615,-74.54567000
4.16574915,-73.34326000
4.16770215,-72.97860000
4.16965515,-74.19214000
4.17160815,-78.34898000
4.17356115,-82.69604000
4.17551415,-83.52594000
4.17746715,-83.11127000
4.17942015,-81.01639000
4.18137315,-81.48866000
4.18332615,-82.03345000
4.18527915,-80.46470000
4.18723215,-78.76920000
4.18918515,-78.49471000
4.19113815,-80.57809000
4.19309115,-84.46252000
4.19504415,-82.97693000
4.19699715,-81.07028000
4.19895015,-80.51655000
4.20090315,-80.64807000
4.20285615,-85.24500000
4.20480915,-87.32545000
4.20676215,-85.27475000
4.20871515,-82.49472000
4.21066815,-79.77744000
4.21262115,-77.78363000
4.21457415,-76.13625000
4.21652715,-76.49875000
4.21848015,-77.97511000
4.22043315,-82.36450000
4.22238615,-93.98902000
4.22433915,-92.04388000
4.22629215,-82.53072000
4.22824515,-78.98997000
4.23019815,-78.71958000
4.23215115,-77.87167000
4.23410415,-76.21475000
4.23605715,-74.87806000
4.23801015,-74.55354000
4.23996315,-76.13334000
4.24191615,-80.17082000
4.24386915,-88.27630000
4.24582215,-84.95998000
4.24777515,-81.25465000
4.24972815,-81.41541000
4.25168115,-82.51337000
4.25363415,-83.68011000
4.25558715,-86.18591000
4.25754015,-87.42569000
4.25949315,-83.92780000
4.26144615,-80.43191000
4.26339915,-79.13110000
4.26535215,-78.46513000
4.26730515,-78.29400000
4.26925815,-79.69947000
4.27121115,-79.72892000
4.27316415,-80.33916000
4.27511715,-83.51368000
4.27707015,-89.68755000
4.27902315,-95.60143000
4.28097615,-86.65081000
4.28292915,-84.52377000
4.28488215,-82.14550000
4.28683515,-79.22174000
4.28878815,-77.83898000
4.29074115,-77.60618000
4.29269415,-79.12189000
4.29464715,-82.38364000
4.29660015,-83.60965000
4.29855315,-82.68165000
4.30050615,-81.76118000
4.30245915,-81.89999000
4.30441215,-82.60585000
4.30636515,-82.55944000
4.30831815,-82.90264000
4.31027115,-84.48489000
4.31222415,-84.81132000
4.31417715,-93.23022000
4.31613015,-85.92899000
4.31808315,-78.21144000
4.32003615,-76.62765000
4.32198915,-77.68693000
4.32394215,-78.18158000
4.32589515,-79.61900000
4.32784815,-81.51762000
4.32980115,-79.98003000
4.33175415,-80.34843000
4.33370715,-83.27003000
4.33566015,-88.96954000
4.33761315,-98.63667000
4.33956615,-89.99132000
4.34151915,-84.03843000
4.34347215,-79.82748000
4.34542515,-76.66119000
4.34737815,-76.48454000
4.34933115,-77.19517000
4.35128415,-77.23104000
4.35323715,-75.84005000
4.35519015,-74.99554000
4.35714315,-75.88914000
4.35909615,-76.75771000
4.36104915,-79.20863000
4.36300215,-87.39061000
4.36495515,-110.90590000
4.36690815,-89.27753000
4.36886115,-80.95645000
4.37081415,-79.83858000
4.37276715,-79.85591000
4.37472015,-78.21664000
4.37667315,-77.50238000
4.37862615,-76.58389000
4.38057915,-76.35177000
4.38253215,-78.58099000
4.38448515,-83.43426000
4.38643815,-93.36325000
4.38839115,-86.89052000
4.39034415,-78.84171000
4.39229715,-76.82029000
4.39425015,-77.30386000
4.39620315,-78.78854000
4.39815615,-79.91451000
4.40010915,-82.33388000
4.40206215,-86.11420000
4.40401515,-88.03697000
4.40596815,-88.22241000
4.40792115,-88.45394000
4.40987416,-83.73291000
4.41182716,-83.17895000
4.41378016,-85.69186000
4.41573316,-84.24738000
4.41768616,-84.06956000
4.41963916,-88.00896000
4.42159216,-94.94686000
4.42354516,-81.22085000
4.42549816,-77.66715000
4.42745116,-77.47804000
4.42940416,-79.56658000
4.43135716,-83.65152000
4.43331016,-89.72823000
4.43526316,-94.83743000
4.43721616,-95.60019000
4.43916916,-86.48240000
4.44112216,-84.71088000
4.44307516,-81.90073000
4.44502816,-79.35631000
4.44698116,-81.67850000
4.44893416,-90.78345000
4.45088716,-92.72289000
4.45284016,-85.10977000
4.45479316,-85.56123000
4.45674616,-86.98575000
4.45869916,-81.15678000
4.46065216,-77.91877000
4.46260516,-77.89583000
4.46455816,-78.84565000
4.46651116,-80.20380000
4.46846416,-79.43281000
4.47041716,-78.28170000
4.47237016,-79.02809000
4.47432316,-81.78690000
4.47627616,-83.82222000
4.47822916,-81.06652000
4.48018216,-78.52955000
4.48213516,-77.82850000
4.48408816,-78.47087000
4.48604116,-78.56731000
4.48799416,-80.65240000
4.48994716,-86.30292000
4.49190016,-86.15099000
4.49385316,-84.24183000
4.49580616,-81.92673000
4.49775916,-80.94994000
4.49971216,-84.16675000
4.50166516,-92.63354000
4.50361816,-82.50347000
4.50557116,-76.59105000
4.50752416,-76.43825000
4.50947716,-79.02886000
4.51143016,-84.03960000
4.51338316,-85.05420000
4.51533616,-77.15292000
4.51728916,-75.62566000
4.51924216,-76.14048000
4.52119516,-77.57898000
4.52314816,-78.94401000
4.52510116,-79.78104000
4.52705416,-78.05785000
4.52900716,-77.90007000
4.53096016,-80.11855000
4.53291316,-83.70261000
4.53486616,-93.45627000
4.53681916,-91.68997000
4.53877216,-82.65984000
4.54072516,-79.29253000
4.54267816,-76.95761000
4.54463116,-77.14758000
4.54658416,-82.47844000
4.54853716,-94.32018000
4.55049016,-80.67245000
4.55244316,-77.14561000
4.55439616,-77.29987000
4.55634916,-79.02289000
4.55830216,-82.21253000
4.56025516,-88.45549000
4.56220816,-92.99150000
4.56416116,-82.69984000
4.56611416,-77.26131000
4.56806716,-77.04619000
4.57002016,-82.22100000
4.57197316,-95.16502000
4.57392616,-83.74058000
4.57587916,-77.28876000
4.57783216,-75.78881000
4.57978516,-75.69473000
4.58173816,-74.90004000
4.58369116,-74.33990000
4.58564416,-75.19784000
4.58759716,-78.15545000
4.58955016,-79.85535000
4.59150316,-78.84624000
4.59345616,-79.05842000
4.59540916,-77.52649000
4.59736216,-75.62923000
4.59931516,-76.23487000
4.60126816,-76.91187000
4.60322116,-76.85022000
4.60517416,-79.58552000
4.60712716,-80.15977000
4.60908016,-79.63656000
4.61103316,-79.41464000
4.61298616,-79.15088000
4.61493916,-78.54083000
4.61689216,-78.22272000
4.61884516,-79.64487000
4.62079816,-80.41895000
4.62275116,-81.89739000
4.62470416,-83.14201000
4.62665716,-87.45337000
4.62861016,-87.29135000
4.63056316,-81.26969000
4.63251616,-79.12568000
4.63446916,-77.60625000
4.63642216,-75.95755000
4.63837516,-74.93279000
4.64032816,-75.22531000
4.64228116,-76.28915000
4.64423416,-77.83425000
4.64618716,-79.37184000
4.64814016,-79.83926000
4.65009316,-79.32832000
4.65204616,-81.21368000
4.65399916,-85.45890000
4.65595216,-89.07011000
4.65790516,-89.71371000
4.65985816,-88.19775000
4.66181116,-82.22894000
4.66376416,-80.38211000
4.66571716,-78.68031000
4.66767016,-76.83918000
4.66962316,-77.11874000
4.67157616,-77.71971000
4.67352916,-76.97932000
4.67548216,-77.15271000
4.67743516,-78.35159000
4.67938816,-79.92512000
4.68134116,-82.09024000
4.68329416,-82.29680000
4.68524716,-79.53033000
4.68720016,-78.31285000
4.68915316,-79.48607000
4.69110616,-82.54951000
4.69305917,-84.00550000
4.69501217,-83.37500000
4.69696517,-83.74184000
4.69891817,-83.33344000
4.70087117,-83.53204000
4.70282417,-84.13515000
4.70477717,-80.06097000
4.70673017,-77.84232000
4.70868317,-78.98856000
4.71063617,-82.98669000
4.71258917,-85.18486000
4.71454217,-82.26460000
4.71649517,-80.71767000
4.71844817,-82.11369000
4.72040117,-81.98932000
4.72235417,-80.17079000
4.72430717,-80.04880000
4.72626017,-80.27960000
4.72821317,-80.54162000
4.73016617,-81.28597000
4.73211917,-80.68294000
4.73407217,-80.64053000
4.73602517,-82.46196000
4.73797817,-89.18098000
4.73993117,-90.40593000
4.74188417,-83.95992000
4.74383717,-79.56391000
4.74579017,-79.37045000
4.74774317,-84.05483000
4.74969617,-85.48110000
4.75164917,-82.17682000
4.75360217,-80.10420000
4.75555517,-79.04598000
4.75750817,-79.61299000
4.75946117,-79.36293000
4.76141417,-77.82628000
4.76336717,-78.24763000
4.76532017,-79.87437000
4.76727317,-81.84651000
4.76922617,-85.68635000
4.77117917,-86.82244000
4.77313217,-86.54308000
4.77508517,-92.30237000
4.77703817,-89.41567000
4.77899117,-83.27949000
4.78094417,-80.83591000
4.78289717,-81.19473000
4.78485017,-82.91080000
4.78680317,-88.86887000
4.78875617,-89.12784000
4.79070917,-85.38831000
4.79266217,-84.61958000
4.79461517,-88.16613000
4.79656817,-99.98326000
4.79852117,-83.60661000
4.80047417,-78.74873000
4.80242717,-77.73393000
4.80438017,-77.66372000
4.80633317,-77.95566000
4.80828617,-79.07344000
4.81023917,-78.95815000
4.81219217,-79.10957000
4.81414517,-80.27701000
4.81609817,-78.04160000
4.81805117,-75.30549000
4.82000417,-75.59180000
4.82195717,-79.78880000
4.82391017,-96.44970000
4.82586317,-80.95258000
4.82781617,-76.80763000
4.82976917,-76.89147000
4.83172217,-77.71392000
4.83367517,-78.69397000
4.83562817,-79.98871000
4.83758117,-81.50381000
4.83953417,-81.22137000
4.84148717,-78.25672000
4.84344017,-76.14954000
4.84539317,-77.36249000
4.84734617,-82.06500000
4.84929917,-85.54284000
4.85125217,-85.13864000
4.85320517,-85.30006000
4.85515817,-87.76201000
4.85711117,-85.86346000
4.85906417,-87.53633000
4.86101717,-86.35506000
4.86297017,-89.79198000
4.86492317,-88.56439000
4.86687617,-82.00507000
4.86882917,-79.55694000
4.87078217,-78.19981000
4.87273517,-78.06057000
4.87468817,-79.18071000
4.87664117,-80.82820000
4.87859417,-82.55135000
4.88054717,-82.83173000
4.88250017,-82.79601000
4.88445317,-84.82723000
4.88640617,-88.12077000
4.88835917,-82.57430000
4.89031217,-80.09425000
4.89226517,-81.88966000
4.89421817,-78.71352000
4.89617117,-75.24895000
4.89812417,-73.09483000
4.90007717,-72.91257000
4.90203017,-74.82633000
4.90398317,-78.05406000
4.90593617,-83.29381000
4.90788917,-86.53481000
4.90984217,-83.91097000
4.91179517,-79.67839000
4.91374817,-72.83881000
4.91570117,-68.25076000
4.91765417,-67.59101000
4.91960717,-68.74294000
4.92156017,-70.95219000
4.92351317,-77.97136000
4.92546617,-84.23082000
4.92741917,-83.10020000
4.92937217,-89.34122000
4.93132517,-88.69566000
4.93327817,-81.64571000
4.93523117,-78.92613000
4.93718417,-77.60520000
4.93913717,-77.41893000
4.94109017,-77.21968000
4.94304317,-76.28991000
4.94499617,-75.99300000
4.94694917,-77.91367000
4.94890217,-82.41061000
4.95085517,-85.45528000
4.95280817,-85.96195000
4.95476117,-82.74171000
4.95671417,-78.72807000
4.95866717,-77.90842000
4.96062017,-79.03175000
4.96257317,-81.95441000
4.96452617,-85.24580000
4.96647917,-80.30672000
4.96843217,-77.32970000
4.97038517,-78.11317000
4.97233817,-82.14851000
4.97429117,-91.80324000
4.97624417,-91.44267000
4.97819718,-83.95451000
4.98015018,-80.34819000
4.98210318,-78.61472000
4.98405618,-79.77228000
4.98600918,-81.60583000
4.98796218,-83.94928000
4.98991518,-84.01920000
4.99186818,-83.97829000
4.99382118,-88.43528000
4.99577418,-99.48902000
4.99772718,-92.58396000
4.99968018,-92.28278000
5.00163318,-105.99140000
5.00358618,-88.50196000
5.00553918,-85.05655000
5.00749218,-84.80388000
5.00944518,-82.72610000
5.01139818,-82.64245000
5.01335118,-85.07134000
5.01530418,-88.76169000
5.01725718,-85.01585000
5.01921018,-84.60828000
5.02116318,-86.16174000
5.02311618,-98.34451000
5.02506918,-84.53803000
5.02702218,-82.26631000
5.02897518,-84.38148000
5.03092818,-87.19194000
5.03288118,-87.25140000
5.03483418,-81.95540000
5.03678718,-81.12253000
5.03874018,-82.80385000
5.04069318,-85.64726000
5.04264618,-83.83937000
5.04459918,-83.69195000
5.04655218,-87.41927000
5.04850518,-84.71434000
5.05045818,-81.64368000
5.05241118,-78.95015000
5.05436418,-78.55710000
5.05631718,-82.18194000
5.05827018,-88.12218000
5.06022318,-96.79803000
5.06217618,-95.26814000
5.06412918,-86.77875000
5.06608218,-82.62936000
5.06803518,-83.72158000
5.06998818,-84.29965000
5.07194118,-84.52449000
5.07389418,-87.22970000
5.07584718,-85.06180000
5.07780018,-80.64723000
5.07975318,-78.08156000
5.08170618,-78.41541000
5.08365918,-82.97612000
5.08561218,-91.10399000
5.08756518,-95.72684000
5.08951818,-99.20162000
5.09147118,-90.26294000
5.09342418,-87.85349000
5.09537718,-84.47231000
5.09733018,-83.62054000
5.09928318,-84.27922000
5.10123618,-86.28139000
5.10318918,-100.44080000
5.10514218,-86.52600000
5.10709518,-85.06093000
5.10904818,-85.37889000
5.11100118,-87.60085000
5.11295418,-87.83907000
5.11490718,-81.66832000
5.11686018,-79.62639000
5.11881318,-77.76118000
5.12076618,-75.61108000
5.12271918,-75.99438000
5.12467218,-77.62665000
5.12662518,-80.86295000
5.12857818,-88.32951000
5.13053118,-80.30074000
5.13248418,-77.97852000
5.13443718,-77.44100000
5.13639018,-79.10496000
5.13834318,-84.31594000
5.14029618,-93.30762000
5.14224918,-87.89027000
5.14420218,-80.08548000
5.14615518,-76.88779000
5.14810818,-74.99556000
5.15006118,-75.13498000
5.15201418,-78.51901000
5.15396718,-85.48131000
5.15592018,-82.68396000
5.15787318,-79.21587000
5.15982618,-80.21333000
5.16177918,-83.02269000
5.16373218,-86.33981000
5.16568518,-82.91797000
5.16763818,-80.40849000
5.16959118,-82.75413000
5.17154418,-85.89646000
5.17349718,-89.13588000
5.17545018,-83.21942000
5.17740318,-80.23732000
5.17935618,-79.25594000
5.18130918,-80.92769000
5.18326218,-86.65297000
5.18521518,-88.61871000
5.18716818,-85.31754000
5.18912118,-85.30368000
5.19107418,-83.41350000
5.19302718,-80.55505000
5.19498018,-80.79812000
5.19693318,-85.08727000
5.19888618,-94.48152000
5.20083918,-94.27534000
5.20279218,-87.86931000
5.20474518,-86.51546000
5.20669818,-86.42529000
5.20865118,-84.53448000
5.21060418,-86.33758000
5.21255718,-87.04005000
5.21451018,-90.62392000
5.21646318,-90.18455000
5.21841618,-92.22644000
5.22036918,-86.22028000
5.22232218,-80.31348000
5.22427518,-78.21143000
5.22622818,-78.25395000
5.22818118,-80.21280000
5.23013418,-82.53546000
5.23208718,-81.67793000
5.23404018,-78.40627000
5.23599318,-76.93033000
5.23794618,-77.44796000
5.23989918,-77.63360000
5.24185218,-77.90366000
5.24380518,-79.58968000
5.24575818,-80.58784000
5.24771118,-80.94975000
5.24966418,-82.54599000
5.25161718,-85.87547000
5.25357018,-95.30473000
5.25552318,-92.43445000
5.25747618,-86.20512000
5.25942918,-85.01428000
5.26138218,-86.34978000
5.26333519,-87.07422000
5.26528819,-92.81940000
5.26724119,-93.75238000
5.26919419,-85.59230000
5.27114719,-84.09888000
5.27310019,-88.15482000
5.27505319,-82.50801000
5.27700619,-80.13953000
5.27895919,-84.00230000
5.28091219,-87.16453000
5.28286519,-80.74323000
5.28481819,-77.58879000
5.28677119,-77.59483000
5.28872419,-77.43484000
5.29067719,-76.77623000
5.29263019,-78.75974000
5.29458319,-81.81988000
5.29653619,-88.34482000
5.29848919,-89.43419000
5.30044219,-81.91075000
5.30239519,-77.18078000
5.30434819,-74.22948000
5.30630119,-73.05390000
5.30825419,-72.94762000
5.31020719,-75.74082000
5.31216019,-84.34679000
5.31411319,-91.63430000
5.31606619,-81.00949000
5.31801919,-76.84724000
5.31997219,-76.05470000
5.32192519,-75.80456000
5.32387819,-73.85622000
5.32583119,-73.48342000
5.32778419,-75.23061000
5.32973719,-76.55864000
5.33169019,-77.23481000
5.33364319,-77.62180000
5.33559619,-76.08960000
5.33754919,-74.45420000
5.33950219,-75.75143000
5.34145519,-81.52837000
5.34340819,-91.01648000
5.34536119,-89.72726000
5.34731419,-86.11365000
5.34926719,-83.66085000
5.35122019,-84.35639000
5.35317319,-82.54365000
5.35512619,-81.01215000
5.35707919,-81.45229000
5.35903219,-81.06966000
5.36098519,-81.45224000
5.36293819,-83.89204000
5.36489119,-83.43606000
5.36684419,-80.75648000
5.36879719,-77.55591000
5.37075019,-75.88329000
5.37270319,-75.79735000
5.37465619,-76.38085000
5.37660919,-78.99722000
5.37856219,-84.62570000
5.38051519,-83.95112000
5.38246819,-78.08302000
5.38442119,-74.79896000
5.38637419,-74.57551000
5.38832719,-75.54657000
5.39028019,-76.58896000
5.39223319,-78.36806000
5.39418619,-80.98331000
5.39613919,-82.60726000
5.39809219,-82.82013000
5.40004519,-89.38859000
5.40199819,-89.76101000
5.40395119,-83.88337000
5.40590419,-80.32539000
5.40785719,-76.94431000
5.40981019,-74.34494000
5.41176319,-73.37151000
5.41371619,-73.94596000
5.41566919,-75.53560000
5.41762219,-77.96299000
5.41957519,-79.14868000
5.42152819,-77.17265000
5.42348119,-75.39098000
5.42543419,-75.95807000
5.42738719,-80.04442000
5.42934019,-89.61234000
5.43129319,-93.08564000
5.43324619,-82.14919000
5.43519919,-77.58797000
5.43715219,-76.31528000
5.43910519,-76.98472000
5.44105819,-75.82146000
5.44301119,-76.09618000
5.44496419,-80.73175000
5.44691719,-85.48035000
5.44887019,-88.51392000
5.45082319,-90.21167000
5.45277619,-90.58876000
5.45472919,-94.00525000
5.45668219,-83.74937000
5.45863519,-81.61800000
5.46058819,-80.03006000
5.46254119,-78.70271000
5.46449419,-78.25919000
5.46644719,-78.44627000
5.46840019,-77.67897000
5.47035319,-77.31203000
5.47230619,-76.37491000
5.47425919,-75.96338000
5.47621219,-78.42862000
5.47816519,-79.60916000
5.48011819,-79.94622000
5.48207119,-86.28206000
5.48402419,-87.05361000
5.48597719,-80.11216000
5.48793019,-77.15182000
5.48988319,-77.04604000
5.49183619,-78.72595000
5.49378919,-79.52327000
5.49574219,-78.48482000
5.49769519,-76.79729000
5.49964819,-76.99957000
5.50160119,-79.32303000
5.50355419,-80.46172000
5.50550719,-80.41940000
5.50746019,-81.53870000
5.50941319,-83.92974000
5.51136619,-85.75767000
5.51331919,-80.86986000
5.51527219,-78.76103000
5.51722519,-82.10784000
5.51917819,-87.84821000
5.52113119,-82.75090000
5.52308419,-81.12555000
5.52503719,-85.65728000
5.52699019,-99.88988000
5.52894319,-83.80057000
5.53089619,-81.71039000
5.53284919,-83.66347000
5.53480219,-88.30174000
5.53675519,-90.24517000
5.53870819,-90.37933000
5.54066119,-93.72398000
5.54261419,-90.60629000
5.54456719,-88.30166000
5.54652020,-86.45515000
5.54847320,-82.04372000
5.55042620,-78.60194000
5.55237920,-77.31996000
5.55433220,-79.13676000
5.55628520,-81.45199000
5.55823820,-83.56628000
5.56019120,-89.50538000
5.56214420,-88.40828000
5.56409720,-86.19054000
5.56605020,-81.83411000
5.56800320,-78.44944000
5.56995620,-77.13915000
5.57190920,-77.58527000
5.57386220,-81.07896000
5.57581520,-87.05835000
5.57776820,-93.80115000
5.57972120,-84.90831000
5.58167420,-81.71950000
5.58362720,-84.69209000
5.58558020,-89.43264000
5.58753320,-91.18915000
5.58948620,-94.69516000
5.59143920,-90.12534000
5.59339220,-82.18671000
5.59534520,-77.34476000
5.59729820,-75.94830000
5.59925120,-76.60504000
5.60120420,-78.33265000
5.60315720,-78.86417000
5.60511020,-79.22476000
5.60706320,-80.37512000
5.60901620,-81.52210000
5.61096920,-85.48684000
5.61292220,-92.39883000
5.61487520,-97.50797000
5.61682820,-90.11668000
5.61878120,-84.05772000
5.62073420,-82.23143000
5.62268720,-80.53539000
5.62464020,-81.18140000
5.62659320,-86.34947000
5.62854620,-90.33171000
5.63049920,-86.28426000
5.63245220,-80.46205000
5.63440520,-75.81345000
5.63635820,-74.01830000
5.63831120,-74.65417000
5.64026420,-77.64729000
5.64221720,-80.61546000
5.64417020,-77.45769000
5.64612320,-75.21121000
5.64807620,-75.30489000
5.65002920,-76.06248000
5.65198220,-76.75604000
5.65393520,-78.46711000
5.65588820,-79.40883000
5.65784120,-79.63101000
5.65979420,-83.28696000
5.66174720,-89.60612000
5.66370020,-85.78872000
5.66565320,-84.57216000
5.66760620,-79.58514000
5.66955920,-77.43026000
5.67151220,-78.66125000
5.67346520,-79.49128000
5.67541820,-79.32730000
5.67737120,-80.23582000
5.67932420,-79.96879000
5.68127720,-77.62057000
5.68323020,-76.76447000
5.68518320,-76.85471000
5.68713620,-75.81417000
5.68908920,-76.38418000
5.69104220,-78.58282000
5.69299520,-80.68741000
5.69494820,-83.29210000
5.69690120,-80.74650000
5.69885420,-78.04534000
5.70080720,-77.17050000
5.70276020,-78.40140000
5.70471320,-84.94140000
5.70666620,-97.32400000
5.70861920,-84.08860000
5.71057220,-81.48643000
5.71252520,-82.15105000
5.71447820,-86.66831000
5.71643120,-84.22850000
5.71838420,-80.83778000
5.72033720,-81.69023000
5.72229020,-88.32277000
5.72424320,-88.52020000
5.72619620,-82.88875000
5.72814920,-83.52179000
5.73010220,-87.45644000
5.73205520,-88.29649000
5.73400820,-77.07207000
5.73596120,-71.86418000
5.73791420,-71.61057000
5.73986720,-72.61040000
5.74182020,-74.49097000
5.74377320,-79.08044000
5.74572620,-80.78454000
5.74767920,-82.22745000
5.74963220,-86.32602000
5.75158520,-85.38097000
5.75353820,-80.39362000
5.75549120,-80.26559000
5.75744420,-82.90248000
5.75939720,-84.33908000
5.76135020,-88.96701000
5.76330320,-84.47382000
5.76525620,-81.81746000
5.76720920,-81.58801000
5.76916220,-81.78605000
5.77111520,-94.33907000
5.77306820,-83.48145000
5.77502120,-79.33299000
5.77697420,-77.08504000
5.77892720,-77.25316000
5.78088020,-80.09446000
5.78283320,-85.67451000
5.78478620,-100.82590000
5.78673920,-95.49126000
5.78869220,-85.28442000
5.79064520,-82.67332000
5.79259820,-81.78413000
5.79455120,-79.69382000
5.79650420,-78.69682000
5.79845720,-76.64964000
5.80041020,-74.41621000
5.80236320,-74.00111000
5.80431620,-75.29079000
5.80626920,-77.80985000
5.80822220,-80.52506000
5.81017520,-81.93993000
5.81212820,-82.10298000
5.81408120,-79.80078000
5.81603420,-81.31844000
5.81798720,-84.29638000
5.81994020,-83.30927000
5.82189320,-83.95802000
5.82384620,-80.75070000
5.82579920,-75.99387000
5.82775220,-75.58368000
5.82970520,-77.62152000
5.83165821,-81.18231000
5.83361121,-85.51034000
5.83556421,-81.42984000
5.83751721,-79.54030000
5.83947021,-79.35481000
5.84142321,-79.31081000
5.84337621,-80.80737000
5.84532921,-83.13251000
5.84728221,-83.44977000
5.84923521,-81.59805000
5.85118821,-85.21866000
5.85314121,-97.77512000
5.85509421,-83.44688000
5.85704721,-79.36822000
5.85900021,-78.10467000
5.86095321,-78.08611000
5.86290621,-77.63181000
5.86485921,-77.29193000
5.86681221,-77.89630000
5.86876521,-80.73459000
5.87071821,-86.04447000
5.87267121,-84.72981000
5.87462421,-79.62427000
5.87657721,-77.71306000
5.87853021,-77.54386000
5.88048321,-78.20574000
5.88243621,-79.26527000
5.88438921,-79.22857000
5.88634221,-78.17157000
5.88829521,-76.82984000
5.89024821,-75.28294000
5.89220121,-74.12477000
5.89415421,-75.01712000
5.89610721,-78.25994000
5.89806021,-83.09698000
5.90001321,-87.12206000
5.90196621,-81.90732000
5.90391921,-80.40292000
5.90587221,-81.89377000
5.90782521,-84.74540000
5.90977821,-82.73403000
5.91173121,-79.24606000
5.91368421,-76.77000000
5.91563721,-76.04877000
5.91759021,-77.87869000
5.91954321,-82.31264000
5.92149621,-96.07568000
5.92344921,-89.25117000
5.92540221,-85.39635000
5.92735521,-81.70716000
5.92930821,-79.11132000
5.93126121,-79.73081000
5.93321421,-81.82436000
5.93516721,-81.31070000
5.93712021,-79.31017000
5.93907321,-79.60631000
5.94102621,-80.92848000
5.94297921,-82.40474000
5.94493221,-85.06795000
5.94688521,-91.43665000
5.94883821,-89.56959000
5.95079121,-81.96606000
5.95274421,-81.29304000
5.95469721,-81.69002000
5.95665021,-80.65269000
5.95860321,-80.84474000
5.96055621,-81.85485000
5.96250921,-82.26681000
5.96446221,-83.13037000
5.96641521,-84.13811000
5.96836821,-84.39017000
5.97032121,-85.89281000
5.97227421,-84.43605000
5.97422721,-85.11215000
5.97618021,-85.89584000
5.97813321,-87.42673000
5.98008621,-88.58292000
5.98203921,-90.72949000
5.98399221,-97.63253000
5.98594521,-88.98500000
5.98789821,-82.32528000
5.98985121,-78.94533000
5.99180421,-78.17378000
5.99375721,-77.55763000
5.99571021,-76.82372000
5.99766321,-77.63432000
5.99961621,-79.39350000
6.00156921,-79.87472000
6.00352221,-78.98866000
6.00547521,-77.10255000
6.00742821,-75.19602000
6.00938121,-74.50947000
6.01133421,-75.52420000
6.01328721,-79.45695000
6.01524021,-90.93683000
6.01719321,-88.49901000
6.01914621,-83.69453000
6.02109921,-80.45580000
6.02305221,-78.45851000
6.02500521,-78.00416000
6.02695821,-84.17565000
6.02891121,-93.97647000
6.03086421,-82.64187000
6.03281721,-79.21582000
6.03477021,-80.37526000
6.03672321,-81.79723000
6.03867621,-81.53127000
6.04062921,-82.28600000
6.04258221,-80.36803000
6.04453521,-78.10268000
6.04648821,-77.44325000
6.04844121,-78.11217000
6.05039421,-78.07376000
6.05234721,-79.29189000
6.05430021,-81.95197000
6.05625321,-78.88457000
6.05820621,-76.22977000
6.06015921,-75.95320000
6.06211221,-75.98533000
6.06406521,-76.23997000
6.06601821,-77.58315000
6.06797121,-79.14046000
6.06992421,-80.08709000
6.07187721,-85.08020000
6.07383021,-93.92059000
6.07578321,-90.10336000
6.07773621,-85.36987000
6.07968921,-82.51934000
6.08164221,-81.35208000
6.08359521,-79.20464000
6.08554821,-77.65674000
6.08750121,-78.19051000
6.08945421,-80.80871000
6.09140721,-82.27599000
6.09336021,-81.11111000
6.09531321,-79.58475000
6.09726621,-79.12408000
6.09921921,-79.85749000
6.10117221,-82.66464000
6.10312521,-93.84380000
6.10507821,-87.93343000
6.10703121,-83.61317000
6.10898421,-82.56963000
6.11093721,-82.64756000
6.11289021,-88.32086000
6.11484321,-82.63364000
6.11679622,-78.55534000
6.11874922,-76.58666000
6.12070222,-75.01576000
6.12265522,-74.52991000
6.12460822,-75.22790000
6.12656122,-78.20581000
6.12851422,-82.75394000
6.13046722,-87.07291000
6.13242022,-89.00764000
6.13437322,-85.81352000
6.13632622,-98.13323000
6.13827922,-85.39474000
6.14023222,-82.01212000
6.14218522,-81.66016000
6.14413822,-81.00175000
6.14609122,-79.27724000
6.14804422,-77.58952000
6.14999722,-76.52988000
6.15195022,-77.61777000
6.15390322,-78.59528000
6.15585622,-77.35101000
6.15780922,-76.99844000
6.15976222,-80.02101000
6.16171522,-84.45011000
6.16366822,-86.09588000
6.16562122,-90.58806000
6.16757422,-87.98286000
6.16952722,-78.01495000
6.17148022,-73.46265000
6.17343322,-71.99454000
6.17538622,-71.20515000
6.17733922,-71.46391000
6.17929222,-74.29948000
6.18124522,-77.58041000
6.18319822,-79.48152000
6.18515122,-80.29622000
6.18710422,-81.07578000
6.18905722,-83.75783000
6.19101022,-86.43694000
6.19296322,-87.51826000
6.19491622,-81.22583000
6.19686922,-77.92418000
6.19882222,-77.07496000
6.20077522,-77.88129000
6.20272822,-80.42832000
6.20468122,-80.47288000
6.20663422,-78.51433000
6.20858722,-78.15895000
6.21054022,-77.48486000
6.21249322,-76.54118000
6.21444622,-76.45446000
6.21639922,-77.35110000
6.21835222,-78.22134000
6.22030522,-79.47137000
6.22225822,-84.73281000
6.22421122,-90.62021000
6.22616422,-81.26034000
6.22811722,-79.35886000
6.23007022,-78.45899000
6.23202322,-79.74071000
6.23397622,-82.04684000
6.23592922,-83.11699000
6.23788222,-85.43748000
6.23983522,-90.98938000
6.24178822,-88.88867000
6.24374122,-83.65456000
6.24569422,-81.45502000
6.24764722,-78.64043000
6.24960022,-78.41338000
6.25155322,-83.52861000
6.25350622,-93.00880000
6.25545922,-86.44474000
6.25741222,-81.22751000
6.25936522,-80.57755000
6.26131822,-81.31825000
6.26327122,-88.81329000
6.26522422,-83.61347000
6.26717722,-78.20716000
6.26913022,-78.42662000
6.27108322,-79.73571000
6.27303622,-84.41920000
6.27498922,-85.06229000
6.27694222,-79.38657000
6.27889522,-79.18006000
6.28084822,-83.83867000
6.28280122,-84.73558000
6.28475422,-78.42108000
6.28670722,-75.84896000
6.28866022,-77.43801000
6.29061322,-81.84363000
6.29256622,-83.05383000
6.29451922,-80.41114000
6.29647222,-77.75095000
6.29842522,-76.54572000
6.30037822,-76.51672000
6.30233122,-77.91095000
6.30428422,-79.36963000
6.30623722,-77.87804000
6.30819022,-77.96850000
6.31014322,-81.17301000
6.31209622,-87.82433000
6.31404922,-85.10606000
6.31600222,-77.99664000
6.31795522,-75.31731000
6.31990822,-74.03619000
6.32186122,-74.22167000
6.32381422,-75.44354000
6.32576722,-76.63314000
6.32772022,-78.27649000
6.32967322,-81.03215000
6.33162622,-84.11109000
6.33357922,-84.79668000
6.33553222,-87.51743000
6.33748522,-94.54535000
6.33943822,-85.67490000
6.34139122,-80.35492000
6.34334422,-78.72020000
6.34529722,-77.70187000
6.34725022,-79.60516000
6.34920322,-82.68402000
6.35115622,-81.35338000
6.35310922,-80.93198000
6.35506222,-79.23896000
6.35701522,-77.46898000
6.35896822,-77.39549000
6.36092122,-77.58356000
6.36287422,-78.02480000
6.36482722,-81.56594000
6.36678022,-82.86336000
6.36873322,-79.36191000
6.37068622,-77.75182000
6.37263922,-78.83173000
6.37459222,-81.73204000
6.37654522,-84.75554000
6.37849822,-88.86184000
6.38045122,-91.21065000
6.38240422,-90.64494000
6.38435722,-90.43796000
6.38631022,-87.88704000
6.38826322,-87.20300000
6.39021622,-83.35885000
6.39216922,-80.20825000
6.39412222,-79.49178000
6.39607522,-79.50018000
6.39802822,-80.92085000
6.39998123,-93.28116000
6.40193423,-80.58287000
6.40388723,-75.33919000
6.40584023,-74.36969000
6.40779323,-73.95728000
6.40974623,-76.71581000
6.41169923,-87.89704000
6.41365223,-87.20348000
6.41560523,-84.16057000
6.41755823,-86.02618000
6.41951123,-80.61548000
6.42146423,-77.73838000
6.42341723,-78.03758000
6.42537023,-80.35484000
6.42732323,-84.07555000
6.42927623,-80.81233000
6.43122923,-79.97308000
6.43318223,-82.57536000
6.43513523,-83.98090000
6.43708823,-78.86978000
6.43904123,-76.72141000
6.44099423,-77.26404000
6.44294723,-79.14940000
6.44490023,-81.70650000
6.44685323,-84.30211000
6.44880623,-89.20282000
6.45075923,-94.04717000
6.45271223,-83.50797000
6.45466523,-79.68820000
6.45661823,-77.67554000
6.45857123,-77.65664000
6.46052423,-81.03340000
6.46247723,-87.93328000
6.46443023,-83.09921000
6.46638323,-80.63768000
6.46833623,-80.73910000
6.47028923,-83.02422000
6.47224223,-85.23380000
6.47419523,-81.68369000
6.47614823,-75.85721000
6.47810123,-74.34471000
6.48005423,-76.67629000
6.48200723,-82.82599000
6.48396023,-93.20034000
6.48591323,-87.25658000
6.48786623,-91.53914000
6.48981923,-93.29384000
6.49177223,-91.05888000
6.49372523,-90.97015000
6.49567823,-83.24548000
6.49763123,-79.90240000
6.49958423,-79.64240000
6.50153723,-81.01974000
6.50349023,-82.73503000
6.50544323,-93.37047000
6.50739623,-93.76983000
6.50934923,-90.63355000
6.51130223,-94.78089000
6.51325523,-106.95690000
6.51520823,-94.19302000
6.51716123,-92.00326000
6.51911423,-92.43137000
6.52106723,-90.03471000
6.52302023,-87.81997000
6.52497323,-83.20116000
6.52692623,-81.97543000
6.52887923,-81.74984000
6.53083223,-82.93438000
6.53278523,-83.87939000
6.53473823,-83.63286000
6.53669123,-85.12515000
6.53864423,-81.74401000
6.54059723,-81.42381000
6.54255023,-83.45352000
6.54450323,-86.01875000
6.54645623,-91.02790000
6.54840923,-91.07235000
6.55036223,-85.82330000
6.55231523,-81.47704000
6.55426823,-80.09422000
6.55622123,-83.30768000
6.55817423,-89.99139000
6.56012723,-90.57718000
6.56208023,-87.51136000
6.56403323,-80.94181000
6.56598623,-79.04433000
6.56793923,-80.88539000
6.56989223,-84.76564000
6.57184523,-86.95808000
6.57379823,-81.98758000
6.57575123,-80.16420000
6.57770423,-80.92816000
6.57965723,-83.71475000
6.58161023,-91.82358000
6.58356323,-87.37375000
6.58551623,-84.22705000
6.58746923,-85.94806000
6.58942223,-86.21853000
6.59137523,-84.47476000
6.59332823,-85.24556000
6.59528123,-92.07835000
6.59723423,-104.70490000
6.59918723,-89.49187000
6.60114023,-84.84447000
6.60309323,-89.14461000
6.60504623,-88.16550000
6.60699923,-84.29683000
6.60895223,-84.07014000
6.61090523,-85.61432000
6.61285823,-93.23926000
6.61481123,-108.50850000
6.61676423,-98.16801000
6.61871723,-94.42540000
6.62067023,-87.29846000
6.62262323,-83.50643000
6.62457623,-79.35204000
6.62652923,-76.49835000
6.62848223,-76.06223000
6.63043523,-77.93577000
6.63238823,-83.26817000
6.63434123,-103.38730000
6.63629423,-87.27380000
6.63824723,-83.87074000
6.64020023,-82.36465000
6.64215323,-80.76483000
6.64410623,-79.27878000
6.64605923,-79.11460000
6.64801223,-81.46122000
6.64996523,-89.09714000
6.65191823,-86.40268000
6.65387123,-81.47663000
6.65582423,-81.42767000
6.65777723,-84.76997000
6.65973023,-96.53738000
6.66168323,-82.32323000
6.66363623,-80.39852000
6.66558923,-82.88383000
6.66754223,-86.06991000
6.66949523,-80.84128000
6.67144823,-77.46350000
6.67340123,-76.44481000
6.67535423,-78.16243000
6.67730723,-81.17446000
6.67926023,-81.48366000
6.68121323,-84.39435000
6.68316623,-90.32167000
6.68511924,-86.77768000
6.68707224,-83.79611000
6.68902524,-84.97673000
6.69097824,-89.35714000
6.69293124,-90.81129000
6.69488424,-86.48255000
6.69683724,-85.32507000
6.69879024,-85.32747000
6.70074324,-83.14317000
6.70269624,-80.48812000
6.70464924,-77.74902000
6.70660224,-76.59775000
6.70855524,-77.42274000
6.71050824,-79.54871000
6.71246124,-84.09904000
6.71441424,-101.14560000
6.71636724,-83.79414000
6.71832024,-78.86630000
6.72027324,-78.85881000
6.72222624,-81.29005000
6.72417924,-86.41082000
6.72613224,-85.71980000
6.72808524,-79.40919000
6.73003824,-81.10854000
6.73199124,-83.90121000
6.73394424,-83.56986000
6.73589724,-86.93407000
6.73785024,-85.66687000
6.73980324,-92.00691000
6.74175624,-98.15826000
6.74370924,-98.46121000
6.74566224,-99.33715000
6.74761524,-97.24717000
6.74956824,-89.03553000
6.75152124,-87.32828000
6.75347424,-96.03891000
6.75542724,-103.53000000
6.75738024,-90.65899000
6.75933324,-88.34369000
6.76128624,-92.24709000
6.76323924,-85.77174000
6.76519224,-82.20684000
6.76714524,-78.73334000
6.76909824,-78.01760000
6.77105124,-79.31167000
6.77300424,-79.21212000
6.77495724,-80.11815000
6.77691024,-83.06398000
6.77886324,-85.39020000
6.78081624,-84.30892000
6.78276924,-82.91843000
6.78472224,-81.84322000
6.78667524,-81.19462000
6.78862824,-80.53504000
6.79058124,-80.54840000
6.79253424,-84.89078000
6.79448724,-113.61730000
6.79644024,-87.49928000
6.79839324,-83.11395000
6.80034624,-82.47668000
6.80229924,-82.84917000
6.80425224,-83.90972000
6.80620524,-86.22406000
6.80815824,-82.02808000
6.81011124,-78.14067000
6.81206424,-77.43002000
6.81401724,-78.28614000
6.81597024,-78.74389000
6.81792324,-78.70518000
6.81987624,-78.89230000
6.82182924,-79.52500000
6.82378224,-78.29428000
6.82573524,-76.91744000
6.82768824,-77.20047000
6.82964124,-79.27388000
6.83159424,-80.22500000
6.83354724,-79.60138000
6.83550024,-82.89326000
6.83745324,-96.81293000
6.83940624,-87.06290000
6.84135924,-80.62764000
6.84331224,-78.60046000
6.84526524,-81.30494000
6.84721824,-85.31209000
6.84917124,-86.19930000
6.85112424,-79.96273000
6.85307724,-78.17932000
6.85503024,-81.34253000
6.85698324,-87.41478000
6.85893624,-87.54337000
6.86088924,-82.66709000
6.86284224,-81.17593000
6.86479524,-81.28873000
6.86674824,-81.35182000
6.86870124,-82.53640000
6.87065424,-86.32623000
6.87260724,-91.20734000
6.87456024,-79.60467000
6.87651324,-76.65313000
6.87846624,-76.28290000
6.88041924,-76.44522000
6.88237224,-79.18147000
6.88432524,-84.81213000
6.88627824,-93.15713000
6.88823124,-99.72386000
6.89018424,-101.90580000
6.89213724,-95.63386000
6.89409024,-93.21594000
6.89604324,-85.14429000
6.89799624,-80.75397000
6.89994924,-78.35863000
6.90190224,-77.66608000
6.90385524,-79.82181000
6.90580824,-84.56161000
6.90776124,-84.01773000
6.90971424,-77.80601000
6.91166724,-75.97188000
6.91362024,-75.87659000
6.91557324,-77.93781000
6.91752624,-81.01910000
6.91947924,-82.75671000
6.92143224,-83.40298000
6.92338524,-80.15215000
6.92533824,-75.94909000
6.92729124,-73.94656000
6.92924424,-75.07860000
6.93119724,-78.51823000
6.93315024,-85.50193000
6.93510324,-93.52599000
6.93705624,-88.58270000
6.93900924,-83.48274000
6.94096224,-79.62270000
6.94291524,-80.11226000
6.94486824,-82.32811000
6.94682124,-83.22269000
6.94877424,-82.64336000
6.95072724,-81.53108000
6.95268024,-82.65718000
6.95463324,-86.75288000
6.95658624,-89.64878000
6.95853924,-82.15724000
6.96049224,-80.20474000
6.96244524,-79.65788000
6.96439824,-77.55344000
6.96635124,-75.99356000
6.96830424,-76.17416000
6.97025725,-75.63989000
6.97221025,-79.03323000
6.97416325,-86.30683000
6.97611625,-79.68703000
6.97806925,-76.28956000
6.98002225,-76.31630000
6.98197525,-77.57312000
6.98392825,-78.32079000
6.98588125,-80.92888000
6.98783425,-88.61602000
6.98978725,-91.49734000
6.99174025,-87.81714000
6.99369325,-84.58438000
6.99564625,-85.36579000
6.99759925,-90.55248000
6.99955225,-86.08891000
7.00150525,-85.61280000
7.00345825,-86.48639000
7.00541125,-84.87567000
7.00736425,-81.83612000
7.00931725,-79.05940000
7.01127025,-77.48830000
7.01322325,-77.21915000
7.01517625,-78.20166000
7.01712925,-81.58397000
7.01908225,-83.02650000
7.02103525,-84.06976000
7.02298825,-88.34163000
7.02494125,-94.20678000
7.02689425,-81.65816000
7.02884725,-75.96289000
7.03080025,-73.38013000
7.03275325,-72.70521000
7.03470625,-73.77840000
7.03665925,-77.08029000
7.03861225,-87.84789000
7.04056525,-81.40266000
7.04251825,-78.20756000
7.04447125,-80.10738000
7.04642425,-85.67332000
7.04837725,-89.52411000
7.05033025,-85.68961000
7.05228325,-86.63318000
7.05423625,-87.98386000
7.05618925,-85.58143000
7.05814225,-83.18150000
7.06009525,-80.55606000
7.06204825,-79.06421000
7.06400125,-80.58575000
7.06595425,-85.26089000
7.06790725,-90.84134000
7.06986025,-84.44533000
7.07181325,-79.74033000
7.07376625,-77.04491000
7.07571925,-76.07141000
7.07767225,-75.94189000
7.07962525,-78.17897000
7.08157825,-83.18257000
7.08353125,-79.10814000
7.08548425,-77.50207000
7.08743725,-77.34576000
7.08939025,-76.77455000
7.09134325,-75.56126000
7.09329625,-76.16434000
7.09524925,-77.06894000
7.09720225,-78.53700000
7.09915525,-82.61136000
7.10110825,-82.33234000
7.10306125,-83.03852000
7.10501425,-81.12434000
7.10696725,-79.84335000
7.10892025,-81.24359000
7.11087325,-81.29800000
7.11282625,-80.60502000
7.11477925,-78.52504000
7.11673225,-75.85616000
7.11868525,-74.51541000
7.12063825,-75.34320000
7.12259125,-77.70625000
7.12454425,-81.17955000
7.12649725,-81.49086000
7.12845025,-78.99302000
7.13040325,-77.57663000
7.13235625,-76.58191000
7.13430925,-75.22337000
7.13626225,-73.86261000
7.13821525,-72.82705000
7.14016825,-71.89973000
7.14212125,-71.56837000
7.14407425,-72.17229000
7.14602725,-73.39464000
7.14798025,-75.67493000
7.14993325,-79.94218000
7.15188625,-87.89809000
7.15383925,-86.13806000
7.15579225,-82.24385000
7.15774525,-80.24224000
7.15969825,-79.32639000
7.16165125,-79.97672000
7.16360425,-82.16140000
7.16555725,-84.95798000
7.16751025,-85.56699000
7.16946325,-86.58364000
7.17141625,-87.01981000
7.17336925,-90.71616000
7.17532225,-90.97704000
7.17727525,-82.80836000
7.17922825,-77.72979000
7.18118125,-76.45968000
7.18313425,-75.72790000
7.18508725,-74.43003000
7.18704025,-74.99651000
7.18899325,-77.28342000
7.19094625,-78.89644000
7.19289925,-81.30524000
7.19485225,-85.23956000
7.19680525,-84.22982000
7.19875825,-82.69772000
7.20071125,-85.18566000
7.20266425,-90.25326000
7.20461725,-92.96835000
7.20657025,-87.27561000
7.20852325,-79.70987000
7.21047625,-77.89735000
7.21242925,-77.00601000
7.21438225,-78.34434000
7.21633525,-83.44497000
7.21828825,-87.25350000
7.22024125,-80.89565000
7.22219425,-79.11720000
7.22414725,-81.19297000
7.22610025,-84.86449000
7.22805325,-84.66731000
7.23000625,-81.70608000
7.23195925,-79.72344000
7.23391225,-78.82047000
7.23586525,-79.79412000
7.23781825,-81.17157000
7.23977125,-82.64468000
7.24172425,-86.42041000
7.24367725,-92.72607000
7.24563025,-80.16214000
7.24758325,-77.01955000
7.24953625,-74.91192000
7.25148925,-74.69886000
7.25344226,-77.48415000
7.25539526,-82.45142000
7.25734826,-82.10596000
7.25930126,-78.44231000
7.26125426,-76.33974000
7.26320726,-75.70119000
7.26516026,-75.46937000
7.26711326,-75.47352000
7.26906626,-75.85516000
7.27101926,-77.01637000
7.27297226,-76.36382000
7.27492526,-74.81347000
7.27687826,-74.84222000
7.27883126,-75.16193000
7.28078426,-75.83643000
7.28273726,-76.82268000
7.28469026,-76.11400000
7.28664326,-76.43508000
7.28859626,-79.29353000
7.29054926,-83.52703000
7.29250226,-86.46606000
7.29445526,-82.56187000
7.29640826,-84.69664000
7.29836126,-88.72966000
7.30031426,-85.09779000
7.30226726,-81.10448000
7.30422026,-78.46047000
7.30617326,-77.17241000
7.30812626,-77.45730000
7.31007926,-79.43528000
7.31203226,-80.36887000
7.31398526,-79.53339000
7.31593826,-80.89916000
7.31789126,-82.21423000
7.31984426,-89.11091000
7.32179726,-90.86906000
7.32375026,-84.39075000
7.32570326,-80.77501000
7.32765626,-78.88022000
7.32960926,-77.73940000
7.33156226,-78.47391000
7.33351526,-81.11227000
7.33546826,-84.17749000
7.33742126,-84.74189000
7.33937426,-81.30065000
7.34132726,-78.20544000
7.34328026,-76.67488000
7.34523326,-77.16062000
7.34718626,-79.00867000
7.34913926,-80.86216000
7.35109226,-81.37122000
7.35304526,-81.30154000
7.35499826,-80.68172000
7.35695126,-81.79844000
7.35890426,-85.60974000
7.36085726,-88.46835000
7.36281026,-89.91264000
7.36476326,-88.85429000
7.36671626,-83.30437000
7.36866926,-81.24221000
7.37062226,-78.50216000
7.37257526,-76.83766000
7.37452826,-76.67062000
7.37648126,-76.73535000
7.37843426,-76.98280000
7.38038726,-78.69857000
7.38234026,-82.96928000
7.38429326,-83.09819000
7.38624626,-82.26251000
7.38819926,-84.05060000
7.39015226,-89.27455000
7.39210526,-88.64032000
7.39405826,-82.54020000
7.39601126,-79.66410000
7.39796426,-80.65991000
7.39991726,-84.80446000
7.40187026,-81.15663000
7.40382326,-76.78283000
7.40577626,-77.39482000
7.40772926,-81.23363000
7.40968226,-81.39423000
7.41163526,-79.72655000
7.41358826,-78.31400000
7.41554126,-77.60023000
7.41749426,-76.57178000
7.41944726,-76.71622000
7.42140026,-79.29597000
7.42335326,-80.11423000
7.42530626,-79.40786000
7.42725926,-79.10353000
7.42921226,-77.15630000
7.43116526,-75.77168000
7.43311826,-76.39737000
7.43507126,-77.49895000
7.43702426,-78.45020000
7.43897726,-84.54565000
7.44093026,-92.19101000
7.44288326,-89.94124000
7.44483626,-86.28905000
7.44678926,-83.24802000
7.44874226,-79.67393000
7.45069526,-80.35069000
7.45264826,-86.47712000
7.45460126,-105.18210000
7.45655426,-83.57715000
7.45850726,-78.41071000
7.46046026,-79.19989000
7.46241326,-82.00426000
7.46436626,-82.49451000
7.46631926,-80.52843000
7.46827226,-78.24643000
7.47022526,-78.15710000
7.47217826,-81.96623000
7.47413126,-101.26770000
7.47608426,-88.53217000
7.47803726,-85.82471000
7.47999026,-81.73985000
7.48194326,-79.71621000
7.48389626,-78.29196000
7.48584926,-77.70158000
7.48780226,-80.00827000
7.48975526,-84.71024000
7.49170826,-89.13828000
7.49366126,-86.77192000
7.49561426,-84.89789000
7.49756726,-83.47803000
7.49952026,-84.05343000
7.50147326,-84.46075000
7.50342626,-81.31432000
7.50537926,-80.22549000
7.50733226,-80.83000000
7.50928526,-82.10680000
7.51123826,-91.42986000
7.51319126,-86.12580000
7.51514426,-82.30775000
7.51709726,-84.61503000
7.51905026,-84.89413000
7.52100326,-81.97928000
7.52295626,-79.02824000
7.52490926,-79.22807000
7.52686226,-81.94351000
7.52881526,-83.52284000
7.53076826,-81.47841000
7.53272126,-81.33527000
7.53467426,-80.49411000
7.53662726,-78.99170000
7.53858027,-78.71821000
7.54053327,-78.87659000
7.54248627,-81.29153000
7.54443927,-87.68401000
7.54639227,-84.18533000
7.54834527,-80.86870000
7.55029827,-79.68749000
7.55225127,-79.61604000
7.55420427,-81.23956000
7.55615727,-86.05112000
7.55811027,-96.12825000
7.56006327,-91.86635000
7.56201627,-87.44118000
7.56396927,-84.06412000
7.56592227,-81.50728000
7.56787527,-82.31197000
7.56982827,-93.57720000
7.57178127,-87.16378000
7.57373427,-80.06538000
7.57568727,-77.29964000
7.57764027,-77.95779000
7.57959327,-81.67275000
7.58154627,-82.21496000
7.58349927,-79.05780000
7.58545227,-79.07774000
7.58740527,-80.79036000
7.58935827,-82.65644000
7.59131127,-83.99419000
7.59326427,-84.94608000
7.59521727,-88.46912000
7.59717027,-81.18912000
7.59912327,-79.15189000
7.60107627,-76.74615000
7.60302927,-74.70295000
7.60498227,-74.09921000
7.60693527,-73.62355000
7.60888827,-73.36604000
7.61084127,-74.14178000
7.61279427,-75.91908000
7.61474727,-79.98033000
7.61670027,-84.67571000
7.61865327,-82.90041000
7.62060627,-81.06448000
7.62255927,-77.22640000
7.62451227,-72.62849000
7.62646527,-70.56258000
7.62841827,-70.54471000
7.63037127,-71.48778000
7.63232427,-72.97105000
7.63427727,-76.28452000
7.63623027,-83.93821000
7.63818327,-97.88697000
7.64013627,-83.56686000
7.64208927,-76.59758000
7.64404227,-73.55717000
7.64599527,-72.61958000
7.64794827,-71.97740000
7.64990127,-72.63757000
7.65185427,-74.75504000
7.65380727,-76.03052000
7.65576027,-76.13242000
7.65771327,-75.71567000
7.65966627,-74.80521000
7.66161927,-74.61295000
7.66357227,-75.49447000
7.66552527,-77.04900000
7.66747827,-78.55956000
7.66943127,-79.47621000
7.67138427,-81.58776000
7.67333727,-83.74439000
7.67529027,-83.88698000
7.67724327,-83.97105000
7.67919627,-86.78178000
7.68114927,-82.71417000
7.68310227,-80.30106000
7.68505527,-77.37572000
7.68700827,-76.65781000
7.68896127,-80.70072000
7.69091427,-86.42657000
7.69286727,-92.60664000
7.69482027,-90.94413000
7.69677327,-92.64294000
7.69872627,-96.38208000
7.70067927,-82.90977000
7.70263227,-80.15567000
7.70458527,-79.10715000
7.70653827,-77.55087000
7.70849127,-79.77560000
7.71044427,-91.54395000
7.71239727,-83.28320000
7.71435027,-78.05058000
7.71630327,-77.97208000
7.71825627,-81.51907000
7.72020927,-82.86144000
7.72216227,-80.37085000
7.72411527,-78.60992000
7.72606827,-77.04668000
7.72802127,-76.07772000
7.72997427,-76.31890000
7.73192727,-77.37144000
7.73388027,-78.70153000
7.73583327,-80.33211000
7.73778627,-82.22947000
7.73973927,-83.77516000
7.74169227,-83.69927000
7.74364527,-83.25209000
7.74559827,-83.49090000
7.74755127,-83.09904000
7.74950427,-84.13127000
7.75145727,-83.99446000
7.75341027,-86.44997000
7.75536327,-95.93446000
7.75731627,-85.63902000
7.75926927,-82.28789000
7.76122227,-80.07971000
7.76317527,-77.64531000
7.76512827,-77.04146000
7.76708127,-77.86900000
7.76903427,-78.82682000
7.77098727,-82.20160000
7.77294027,-85.07396000
7.77489327,-82.23711000
7.77684627,-79.80614000
7.77879927,-78.51517000
7.78075227,-80.40427000
7.78270527,-85.21655000
7.78465827,-88.69586000
7.78661127,-80.72095000
7.78856427,-78.09612000
7.79051727,-79.51247000
7.79247027,-85.01950000
7.79442327,-85.21310000
7.79637627,-79.94575000
7.79832927,-76.39415000
7.80028227,-75.75563000
7.80223527,-76.74444000
7.80418827,-79.28487000
7.80614127,-87.25639000
7.80809427,-85.76183000
7.81004727,-83.09312000
7.81200027,-84.37222000
7.81395327,-87.52600000
7.81590627,-101.02600000
7.81785927,-97.57351000
7.81981227,-91.84676000
7.82176528,-92.99049000
7.82371828,-89.15585000
7.82567128,-87.56854000
7.82762428,-85.09022000
7.82957728,-82.10679000
7.83153028,-82.72411000
7.83348328,-79.36184000
7.83543628,-77.00231000
7.83738928,-76.74544000
7.83934228,-76.78639000
7.84129528,-77.64585000
7.84324828,-80.03566000
7.84520128,-81.44005000
7.84715428,-82.16740000
7.84910728,-83.71442000
7.85106028,-81.97664000
7.85301328,-79.45766000
7.85496628,-80.86317000
7.85691928,-80.65016000
7.85887228,-78.66744000
7.86082528,-78.05569000
7.86277828,-77.19539000
7.86473128,-76.78535000
7.86668428,-76.83711000
7.86863728,-77.10255000
7.87059028,-80.62061000
7.87254328,-85.24878000
7.87449628,-82.53288000
7.87644928,-79.58369000
7.87840228,-77.31369000
7.88035528,-76.25901000
7.88230828,-76.99518000
7.88426128,-78.00601000
7.88621428,-80.62126000
7.88816728,-82.44153000
7.89012028,-80.97682000
7.89207328,-78.27194000
7.89402628,-76.03273000
7.89597928,-75.39632000
7.89793228,-76.92842000
7.89988528,-80.60642000
7.90183828,-86.81859000
7.90379128,-90.21416000
7.90574428,-84.09519000
7.90769728,-83.08341000
7.90965028,-83.46321000
7.91160328,-82.61304000
7.91355628,-82.77144000
7.91550928,-83.28999000
7.91746228,-84.44333000
7.91941528,-90.26666000
7.92136828,-84.02317000
7.92332128,-80.59425000
7.92527428,-81.42944000
7.92722728,-83.83998000
7.92918028,-83.42949000
7.93113328,-81.42296000
7.93308628,-79.18190000
7.93503928,-79.04955000
7.93699228,-81.18690000
7.93894528,-82.97530000
7.94089828,-84.59003000
7.94285128,-82.28371000
7.94480428,-84.39156000
7.94675728,-96.46262000
7.94871028,-99.45512000
7.95066328,-94.02055000
7.95261628,-84.57343000
7.95456928,-81.21675000
7.95652228,-82.31155000
7.95847528,-84.02411000
7.96042828,-93.18681000
7.96238128,-85.67998000
7.96433428,-80.31775000
7.96628728,-80.11024000
7.96824028,-80.53092000
7.97019328,-82.31788000
7.97214628,-84.92546000
7.97409928,-82.71186000
7.97605228,-78.97651000
7.97800528,-79.04569000
7.97995828,-79.64673000
7.98191128,-78.07542000
7.98386428,-77.94389000
7.98581728,-79.39857000
7.98777028,-80.18004000
7.98972328,-81.38390000
7.99167628,-85.79126000
7.99362928,-95.84264000
7.99558228,-90.67451000
7.99753528,-93.97529000
