Frequency,Channel A,Channel B
(kHz),(dBu),(dBu)

0.00000000,-75.47316000,-14.21253000
0.04768372,-83.83874000,-27.70988000
0.09536743,-81.56221000,-21.02894000
0.14305115,-78.99363000,-22.58783000
0.19073486,-83.75118000,-22.43283000
0.23841858,-82.11784000,-23.39146000
0.28610229,-78.69397000,-23.05301000
0.33378601,-84.37901000,-24.48417000
0.38146973,-80.86023000,-24.74962000
0.42915344,-78.53668000,-25.70689000
0.47683716,-86.72157000,-26.72679000
0.52452087,-79.95968000,-26.80167000
0.57220459,-79.72337000,-28.16692000
0.61988831,-85.04813000,-29.24602000
0.66757202,-80.49838000,-30.27464000
0.71525574,-79.04025000,-29.46360000
0.76293945,-87.44762000,-31.03847000
0.81062317,-79.01499000,-30.91848000
0.85830688,-79.92410000,-33.12476000
0.90599060,-85.73872000,-31.64698000
0.95367432,-79.23549000,-31.28532000
1.00135803,-80.74095000,-34.87775000
1.04904175,-85.28888000,-32.37541000
1.09672546,-79.19164000,-33.20552000
1.14440918,-80.28645000,-33.64665000
1.19209290,-85.71275000,-34.82372000
1.23977661,-78.22317000,-33.58533000
1.28746033,-82.22279000,-36.54973000
1.33514404,-83.08689000,-33.80960000
1.38282776,-79.07034000,-36.50696000
1.43051147,-82.07261000,-35.16484000
1.47819519,-83.84599000,-35.60019000
1.52587891,-78.44501000,-35.08852000
1.57356262,-82.75362000,-36.67467000
1.62124634,-82.13078000,-36.12960000
1.66893005,-78.35037000,-36.40182000
1.71661377,-84.90805000,-37.07925000
1.76429749,-81.20937000,-36.44299000
1.81198120,-79.24760000,-37.52136000
1.85966492,-83.87888000,-36.51014000
1.90734863,-81.60325000,-37.37033000
1.95503235,-78.43651000,-37.63654000
2.00271606,-86.44009000,-36.37247000
2.05039978,-79.80013000,-40.25869000
2.09808350,-79.30424000,-36.70189000
2.14576721,-85.93731000,-37.47981000
2.19345093,-80.08887000,-37.48540000
2.24113464,-79.71790000,-37.14003000
2.28881836,-85.84572000,-37.86729000
2.33650208,-79.67411000,-38.92287000
2.38418579,-79.32914000,-38.82046000
2.43186951,-87.29275000,-38.25702000
2.47955322,-78.65810000,-37.93885000
2.52723694,-80.96820000,-39.51221000
2.57492065,-84.55280000,-36.52113000
2.62260437,-79.42341000,-38.73722000
2.67028809,-80.63747000,-38.64532000
2.71797180,-85.75100000,-37.94302000
2.76565552,-78.48019000,-37.83789000
2.81333923,-81.33620000,-38.88553000
2.86102295,-83.70048000,-37.69202000
2.90870667,-78.44891000,-38.60303000
2.95639038,-83.03422000,-38.42409000
3.00407410,-82.76202000,-38.15639000
3.05175781,-79.05164000,-37.25655000
3.09944153,-82.31552000,-39.82372000
3.14712524,-83.06940000,-36.41284000
3.19480896,-78.13102000,-37.23846000
3.24249268,-84.62479000,-38.37827000
3.29017639,-80.90598000,-38.21813000
3.33786011,-78.97820000,-37.58250000
3.38554382,-84.75562000,-36.92068000
3.43322754,-81.28142000,-38.16419000
3.48091125,-79.01997000,-35.88828000
3.52859497,-84.98879000,-37.31989000
3.57627869,-80.46106000,-36.45859000
3.62396240,-78.68722000,-37.09502000
3.67164612,-87.42981000,-35.31361000
3.71932983,-79.39820000,-36.45393000
3.76701355,-80.05762000,-35.50686000
3.81469727,-85.23911000,-35.32200000
3.86238098,-80.06653000,-34.42273000
3.91006470,-79.53269000,-35.24810000
3.95774841,-87.13315000,-33.26734000
4.00543213,-78.80174000,-33.96952000
4.05311584,-80.24360000,-33.46286000
4.10079956,-85.31739000,-32.30455000
4.14848328,-78.83514000,-31.94418000
4.19616699,-81.47340000,-31.12495000
4.24385071,-84.42084000,-30.54771000
4.29153442,-79.12829000,-29.10290000
4.33921814,-80.88423000,-27.28712000
4.38690186,-84.87581000,-27.81171000
4.43458557,-78.11373000,-24.11585000
4.48226929,-82.88408000,-22.19367000
4.52995300,-82.31410000,-17.33167000
4.57763672,-78.93156000,-11.36313000
4.62532043,-83.03794000,-6.39685600
4.67300415,-82.83119000,-4.39955200
4.72068787,-78.62228000,-6.43505700
4.76837158,-83.43011000,-11.44519000
4.81605530,-81.57732000,-17.49615000
4.86373901,-78.34482000,-23.07304000
4.91142273,-85.95787000,-24.84266000
4.95910645,-80.46083000,-28.53292000
5.00679016,-79.45809000,-29.76785000
5.05447388,-84.60213000,-30.77127000
5.10215759,-81.02554000,-32.96273000
5.14984131,-78.75485000,-32.62185000
5.19752502,-86.93340000,-36.16118000
5.24520874,-79.42127000,-36.09958000
5.29289246,-79.47691000,-33.84205000
5.34057617,-86.23492000,-39.62343000
5.38825989,-79.52257000,-36.61271000
5.43594360,-80.27693000,-39.44020000
5.48362732,-85.57301000,-40.95076000
5.53131104,-79.48218000,-38.86346000
5.57899475,-79.75086000,-41.61977000
5.62667847,-86.74083000,-40.16076000
5.67436218,-78.38412000,-39.91007000
5.72204590,-81.47818000,-41.88536000
5.76972961,-83.87196000,-44.98438000
5.81741333,-79.16068000,-41.01028000
5.86509705,-81.43138000,-42.71831000
5.91278076,-84.67270000,-45.77013000
5.96046448,-78.51057000,-45.79842000
6.00814819,-81.89441000,-40.84759000
6.05583191,-83.02817000,-50.54492000
6.10351563,-78.29047000,-45.20267000
6.15119934,-84.01393000,-43.84605000
6.19888306,-81.84712000,-49.80164000
6.24656677,-79.14476000,-44.11178000
6.29425049,-83.14070000,-50.73582000
6.34193420,-82.33448000,-44.14075000
6.38961792,-78.28460000,-46.44753000
6.43730164,-85.38863000,-45.21326000
6.48498535,-80.35555000,-50.43073000
6.53266907,-79.01476000,-45.47437000
6.58035278,-85.67270000,-46.36639000
6.62803650,-80.53436000,-50.60001000
6.67572021,-79.42072000,-46.54414000
6.72340393,-85.41573000,-51.62508000
6.77108765,-80.12916000,-53.83550000
6.81877136,-78.93844000,-45.76771000
6.86645508,-87.71745000,-60.63745000
6.91413879,-78.95107000,-47.65984000
6.96182251,-80.42664000,-50.69062000
7.00950623,-85.07516000,-57.78481000
7.05718994,-79.67348000,-48.69946000
7.10487366,-80.13696000,-51.38743000
7.15255737,-86.41189000,-49.21383000
7.20024109,-78.68181000,-54.52296000
7.24792480,-80.64332000,-51.29526000
7.29560852,-84.70638000,-56.20239000
7.34329224,-78.52168000,-61.36204000
7.39097595,-82.27925000,-49.46983000
7.43865967,-83.47092000,-49.24245000
7.48634338,-79.10480000,-57.46564000
7.53402710,-81.59256000,-50.95930000
7.58171082,-84.01008000,-55.93098000
7.62939453,-78.10693000,-53.73193000
7.67707825,-83.58374000,-55.36938000
7.72476196,-81.61057000,-48.65055000
7.77244568,-78.83897000,-59.37155000
7.82012939,-84.07549000,-46.51583000
7.86781311,-81.89515000,-51.46400000
7.91549683,-78.87518000,-55.74429000
7.96318054,-84.11935000,-49.79992000
8.01086426,-81.09422000,-52.28413000
8.05854797,-78.43429000,-50.62844000
8.10623169,-86.89236000,-54.48867000
8.15391541,-79.83056000,-51.93526000
8.20159912,-79.69976000,-53.15769000
8.24928284,-85.13342000,-47.92489000
8.29696655,-80.49014000,-65.35081000
8.34465027,-79.17905000,-52.16021000
8.39233398,-87.05474000,-53.45817000
8.44001770,-79.14326000,-46.13271000
8.48770142,-79.72095000,-48.57197000
8.53538513,-86.13460000,-62.75446000
8.58306885,-79.04628000,-73.17432000
8.63075256,-80.90666000,-49.11274000
8.67843628,-84.96612000,-50.30785000
8.72612000,-79.33742000,-55.96953000
8.77380371,-80.28545000,-53.68377000
8.82148743,-85.93738000,-52.14632000
8.86917114,-78.21590000,-54.57878000
8.91685486,-82.03259000,-61.97739000
8.96453857,-83.12534000,-54.00346000
9.01222229,-78.94093000,-58.52876000
9.05990601,-82.33672000,-53.24403000
9.10758972,-83.59314000,-49.99740000
9.15527344,-78.62012000,-50.76774000
9.20295715,-82.53188000,-43.75874000
9.25064087,-82.40018000,-45.12850000
9.29832458,-78.22374000,-43.72344000
9.34600830,-85.02652000,-43.38383000
9.39369202,-81.03550000,-43.46912000
9.44137573,-79.26839000,-42.30445000
9.48905945,-83.98488000,-45.16094000
9.53674316,-81.64195000,-46.00546000
9.58442688,-78.54025000,-51.74361000
9.63211060,-86.05510000,-53.14322000
9.67979431,-79.91050000,-54.34992000
9.72747803,-79.11379000,-57.63894000
9.77516174,-86.35843000,-49.50573000
9.82284546,-79.88219000,-49.73224000
9.87052917,-79.88965000,-50.76874000
9.91821289,-85.53780000,-56.19687000
9.96589661,-79.85352000,-53.33503000
10.01358032,-79.29639000,-50.08666000
10.06126404,-87.51620000,-57.68334000
10.10894775,-78.61530000,-55.24435000
10.15663147,-80.83441000,-49.82704000
10.20431519,-84.61056000,-52.61928000
10.25199890,-79.32301000,-51.25970000
10.29968262,-80.85354000,-50.66315000
10.34736633,-85.43743000,-58.82003000
10.39505005,-78.64690000,-50.72300000
10.44273376,-81.13170000,-52.80861000
10.49041748,-84.01947000,-51.22446000
10.53810120,-78.29936000,-56.43669000
10.58578491,-83.14864000,-57.02425000
10.63346863,-82.53819000,-60.28425000
10.68115234,-79.11416000,-56.42068000
10.72883606,-82.40135000,-51.81346000
10.77651978,-83.15986000,-50.69414000
10.82420349,-78.20129000,-50.50251000
10.87188721,-84.30774000,-50.33529000
10.91957092,-80.99944000,-66.60050000
10.96725464,-78.80181000,-52.49962000
11.01493835,-85.12498000,-52.51667000
11.06262207,-81.05388000,-51.50860000
11.11030579,-79.19629000,-60.38776000
11.15798950,-84.74342000,-50.80755000
11.20567322,-80.67501000,-49.62389000
11.25335693,-78.62425000,-50.73592000
11.30104065,-87.56065000,-51.36928000
11.34872437,-79.31760000,-50.17347000
11.39640808,-79.97426000,-53.37499000
11.44409180,-85.35302000,-55.53341000
11.49177551,-79.99950000,-49.74071000
11.53945923,-79.70956000,-48.18608000
11.58714294,-86.73260000,-57.74866000
11.63482666,-78.95792000,-56.85846000
11.68251038,-80.04723000,-51.45140000
11.73019409,-85.70467000,-48.34283000
11.77787781,-78.66340000,-50.80884000
11.82556152,-81.60075000,-53.74340000
11.87324524,-84.15051000,-48.54420000
11.92092896,-79.23072000,-48.59533000
11.96861267,-80.93568000,-60.57957000
12.01629639,-85.01618000,-59.49041000
12.06398010,-78.15083000,-52.80702000
12.11166382,-82.63548000,-59.93920000
12.15934753,-82.39719000,-69.36097000
12.20703125,-78.77190000,-59.43408000
12.25471497,-83.33987000,-49.94067000
12.30239868,-82.57327000,-51.12358000
12.35008240,-78.80061000,-75.02950000
12.39776611,-83.23022000,-65.38538000
12.44544983,-81.83006000,-53.06225000
12.49313354,-78.25333000,-47.91911000
12.54081726,-86.01620000,-47.84220000
12.58850098,-80.33897000,-60.21436000
12.63618469,-79.42142000,-54.29981000
12.68386841,-84.75626000,-56.39235000
12.73155212,-80.99666000,-53.88021000
12.77923584,-78.89741000,-53.59606000
12.82691956,-86.50618000,-55.56957000
12.87460327,-79.56541000,-79.19604000
12.92228699,-79.28608000,-54.34763000
12.96997070,-86.67413000,-49.66778000
13.01765442,-79.32829000,-52.20084000
13.06533813,-80.42014000,-64.06033000
13.11302185,-85.29327000,-57.29568000
13.16070557,-79.62365000,-55.74900000
13.20838928,-79.76640000,-49.67546000
13.25607300,-86.89859000,-57.57091000
13.30375671,-78.38734000,-55.33928000
13.35144043,-81.28767000,-48.20660000
13.39912415,-83.96445000,-46.69853000
13.44680786,-79.02121000,-51.13309000
13.49449158,-81.68063000,-71.12798000
13.54217529,-84.36331000,-66.31325000
13.58985901,-78.68816000,-50.90882000
13.63754272,-81.71242000,-50.59315000
13.68522644,-83.32974000,-53.84777000
13.73291016,-78.17182000,-49.16500000
13.78059387,-84.06604000,-46.28419000
13.82827759,-81.67987000,-45.83466000
13.87596130,-79.15250000,-45.17042000
13.92364502,-83.28374000,-47.27779000
13.97132874,-82.34807000,-50.18951000
14.01901245,-78.39513000,-51.13017000
14.06669617,-85.01979000,-51.94214000
14.11437988,-80.48767000,-52.36919000
14.16206360,-78.83001000,-51.48446000
14.20974731,-86.08096000,-47.82104000
14.25743103,-80.31509000,-48.08942000
14.30511475,-79.57809000,-46.70639000
14.35279846,-85.18699000,-47.19986000
14.40048218,-80.31023000,-56.82806000
14.44816589,-78.91977000,-49.47163000
14.49584961,-87.80496000,-50.41485000
14.54353333,-78.91879000,-60.21067000
14.59121704,-80.28683000,-57.34393000
14.63890076,-85.21336000,-52.54025000
14.68658447,-79.55821000,-49.98413000
14.73426819,-80.34616000,-51.38092000
14.78195190,-86.02293000,-55.90988000
14.82963562,-78.85603000,-54.78873000
14.87731934,-80.46527000,-50.11189000
14.92500305,-85.07320000,-53.67192000
14.97268677,-78.37665000,-56.80030000
15.02037048,-82.35244000,-49.70057000
15.06805420,-83.25810000,-49.29202000
15.11573792,-79.15565000,-51.83346000
15.16342163,-81.69966000,-48.03940000
15.21110535,-84.06633000,-48.35666000
15.25878906,-78.18612000,-49.85822000
15.30647278,-83.28622000,-54.43573000
15.35415649,-81.73447000,-64.47069000
15.40184021,-78.66245000,-57.83046000
15.44952393,-84.41021000,-54.86968000
15.49720764,-81.64433000,-55.80128000
15.54489136,-79.04362000,-59.07369000
15.59257507,-83.94527000,-68.07385000
15.64025879,-81.31783000,-68.55125000
15.68794250,-78.38344000,-55.45699000
15.73562622,-86.88652000,-51.88578000
15.78330994,-79.76021000,-54.85439000
15.83099365,-79.60653000,-63.91935000
15.87867737,-85.32734000,-49.53221000
15.92636108,-80.40334000,-47.79314000
15.97404480,-79.35512000,-48.54084000
16.02172852,-86.60995000,-58.55825000
16.06941223,-79.31213000,-56.03521000
16.11709595,-79.54205000,-50.54705000
16.16477966,-86.56880000,-51.15837000
16.21246338,-78.87467000,-51.91340000
16.26014709,-81.00603000,-51.96976000
16.30783081,-84.72805000,-54.70215000
16.35551453,-79.43092000,-56.07670000
16.40319824,-80.35260000,-53.75246000
16.45088196,-86.01784000,-52.84198000
16.49856567,-78.26337000,-56.40120000
16.54624939,-81.79436000,-57.13122000
16.59393311,-83.25388000,-60.82484000
16.64161682,-78.77564000,-58.07862000
16.68930054,-82.61206000,-63.50558000
16.73698425,-83.29637000,-53.43517000
16.78466797,-78.79633000,-54.62986000
16.83235168,-82.38028000,-55.03711000
16.88003540,-82.67346000,-51.82426000
16.92771912,-78.14227000,-50.87236000
16.97540283,-85.00423000,-52.66203000
17.02308655,-80.92393000,-65.63379000
17.07077026,-79.21969000,-52.89616000
17.11845398,-84.18436000,-58.22632000
17.16613770,-81.58745000,-58.83899000
17.21382141,-78.68641000,-52.53159000
17.26150513,-85.64702000,-48.29535000
17.30918884,-80.07320000,-45.88583000
17.35687256,-78.93357000,-49.03255000
17.40455627,-86.79353000,-61.18607000
17.45223999,-79.68228000,-53.51593000
17.49992371,-80.01344000,-57.28220000
17.54760742,-85.32990000,-56.66526000
17.59529114,-79.99033000,-54.21391000
17.64297485,-79.32552000,-64.51573000
17.69065857,-87.55375000,-51.61290000
17.73834229,-78.62984000,-50.56770000
17.78602600,-80.64571000,-58.11019000
17.83370972,-84.77274000,-53.54998000
17.88139343,-79.17251000,-48.35397000
17.92907715,-81.08739000,-48.62626000
17.97676086,-85.07157000,-54.01468000
18.02444458,-78.82775000,-53.69496000
18.07212830,-80.98189000,-58.82364000
18.11981201,-84.35523000,-56.74224000
18.16749573,-78.18819000,-52.51080000
18.21517944,-83.15358000,-51.35165000
18.26286316,-82.38407000,-56.13897000
18.31054688,-79.10923000,-66.45537000
18.35823059,-82.56623000,-63.96146000
18.40591431,-83.13870000,-53.55341000
18.45359802,-78.31866000,-51.95274000
18.50128174,-83.97202000,-51.87196000
18.54896545,-81.15791000,-46.74162000
18.59664917,-78.62177000,-45.11901000
18.64433289,-85.48672000,-47.62997000
18.69201660,-80.82101000,-51.73553000
18.73970032,-79.34087000,-48.38034000
18.78738403,-84.59579000,-45.20518000
18.83506775,-80.85748000,-46.47237000
18.88275146,-78.61793000,-55.51329000
18.93043518,-87.49486000,-56.32673000
18.97811890,-79.29729000,-60.12032000
19.02580261,-79.82994000,-54.02697000
19.07348633,-85.57600000,-53.18801000
19.12117004,-79.86751000,-63.37643000
19.16885376,-79.91187000,-80.62811000
19.21653748,-86.29623000,-64.43359000
19.26422119,-79.14087000,-58.58304000
19.31190491,-79.89127000,-66.82864000
19.35958862,-86.11286000,-52.59047000
19.40727234,-78.52258000,-51.73415000
19.45495605,-81.64214000,-59.75723000
19.50263977,-83.96382000,-53.81422000
19.55032349,-79.26972000,-49.40527000
19.59800720,-81.05679000,-53.60253000
19.64569092,-85.01794000,-56.48441000
19.69337463,-78.23929000,-53.91089000
19.74105835,-82.36069000,-50.10414000
19.78874207,-82.55958000,-49.52481000
19.83642578,-78.59454000,-53.91053000
19.88410950,-83.63295000,-58.19209000
19.93179321,-82.29756000,-56.01902000
19.97947693,-78.96210000,-53.47659000
20.02716064,-83.11423000,-50.29889000
20.07484436,-82.06348000,-48.33760000
20.12252808,-78.21355000,-50.75566000
20.17021179,-85.91330000,-57.31037000
20.21789551,-80.28136000,-65.40204000
20.26557922,-79.31935000,-53.41644000
20.31326294,-85.00747000,-50.29717000
20.36094666,-80.88652000,-50.47910000
20.40863037,-79.07269000,-53.22740000
20.45631409,-86.07471000,-54.12985000
20.50399780,-79.74895000,-53.23410000
20.55168152,-79.12215000,-47.79936000
20.59936523,-87.11568000,-46.01764000
20.64704895,-79.15659000,-54.80329000
20.69473267,-80.49631000,-53.46258000
20.74241638,-85.11444000,-51.19124000
20.79010010,-79.70762000,-56.42109000
20.83778381,-79.84560000,-73.24118000
20.88546753,-86.87827000,-55.23216000
20.93315125,-78.44592000,-50.86399000
20.98083496,-81.06073000,-52.20565000
21.02851868,-84.15153000,-55.32707000
21.07620239,-78.84954000,-56.94717000
21.12388611,-81.92948000,-51.88504000
21.17156982,-84.02763000,-47.19497000
21.21925354,-78.86294000,-46.92672000
21.26693726,-81.59890000,-55.73240000
21.31462097,-83.62376000,-55.98344000
21.36230469,-78.09976000,-53.54008000
21.40998840,-83.99209000,-52.91040000
21.45767212,-81.58342000,-49.98702000
21.50535583,-79.09230000,-52.20288000
21.55303955,-83.50727000,-55.17576000
21.60072327,-82.26109000,-57.36027000
21.64840698,-78.54501000,-59.08116000
21.69609070,-84.65641000,-57.43092000
21.74377441,-80.67237000,-51.84563000
21.79145813,-78.65892000,-58.32890000
21.83914185,-86.46247000,-56.77166000
21.88682556,-80.10925000,-56.02055000
21.93450928,-79.68492000,-57.50649000
21.98219299,-85.06442000,-57.19897000
22.02987671,-80.44147000,-53.32367000
22.07756042,-78.96045000,-58.69541000
22.12524414,-87.68898000,-62.59434000
22.17292786,-78.94592000,-53.04216000
22.22061157,-80.10071000,-50.88561000
22.26829529,-85.45648000,-58.17882000
22.31597900,-79.39540000,-52.52021000
22.36366272,-80.56530000,-48.80592000
22.41134644,-85.61536000,-48.50930000
22.45903015,-79.04105000,-50.57107000
22.50671387,-80.34164000,-53.92823000
22.55439758,-85.43896000,-65.46439000
22.60208130,-78.27265000,-58.68756000
22.64976501,-82.32423000,-62.06327000
22.69744873,-83.12743000,-55.30124000
22.74513245,-79.13804000,-52.04687000
22.79281616,-81.87614000,-55.94373000
22.84049988,-83.99650000,-56.95885000
22.88818359,-78.31065000,-52.78618000
22.93586731,-82.98660000,-50.74947000
22.98355103,-81.92527000,-46.41996000
23.03123474,-78.48620000,-48.39639000
23.07891846,-84.71196000,-51.72845000
23.12660217,-81.39743000,-47.25311000
23.17428589,-79.17672000,-46.30342000
23.22196960,-83.86681000,-48.54249000
23.26965332,-81.50066000,-50.33690000
23.31733704,-78.38824000,-50.85577000
23.36502075,-86.70540000,-51.66643000
23.41270447,-79.75397000,-55.25784000
23.46038818,-79.45844000,-55.35051000
23.50807190,-85.62039000,-59.76694000
23.55575562,-80.25222000,-55.99966000
23.60343933,-79.55096000,-53.08560000
23.65112305,-86.17537000,-54.08094000
23.69880676,-79.50523000,-57.89532000
23.74649048,-79.40470000,-59.42719000
23.79417419,-86.99051000,-63.47221000
23.84185791,-78.73798000,-68.90256000
23.88954163,-81.02256000,-54.34301000
23.93722534,-84.58855000,-49.10955000
23.98490906,-79.45749000,-52.72170000
24.03259277,-80.48301000,-50.02689000
24.08027649,-85.93668000,-48.67018000
24.12796021,-78.36172000,-52.32148000
24.17564392,-81.54150000,-68.67965000
24.22332764,-83.46484000,-76.71107000
24.27101135,-78.59673000,-54.43319000
24.31869507,-82.86443000,-57.81525000
24.36637878,-82.99622000,-56.57988000
24.41406250,-78.95162000,-53.76175000
24.46174622,-82.30908000,-75.22015000
24.50942993,-82.91527000,-58.38268000
24.55711365,-78.11286000,-58.73417000
24.60479736,-84.84580000,-57.85869000
24.65248108,-80.88284000,-52.60723000
24.70016479,-79.10931000,-50.33358000
24.74784851,-84.46529000,-53.04376000
24.79553223,-81.44932000,-58.64346000
24.84321594,-78.86121000,-61.53176000
24.89089966,-85.26615000,-59.28351000
24.93858337,-80.27390000,-52.00538000
24.98626709,-78.78255000,-48.57334000
25.03395081,-87.18352000,-50.76332000
25.08163452,-79.51056000,-58.03227000
25.12931824,-80.07001000,-68.21704000
25.17700195,-85.23208000,-57.50535000
25.22468567,-80.06362000,-60.62511000
25.27236938,-79.41432000,-56.89006000
25.32005310,-87.39635000,-49.74208000
25.36773682,-78.70061000,-48.04531000
25.41542053,-80.42960000,-53.07531000
25.46310425,-85.03109000,-55.84321000
25.51078796,-78.99355000,-49.48436000
25.55847168,-81.31174000,-53.92131000
25.60615540,-84.70485000,-72.68836000
25.65383911,-79.00178000,-53.89635000
25.70152283,-80.89839000,-52.33324000
25.74920654,-84.66582000,-55.28133000
25.79689026,-78.12523000,-55.98131000
25.84457397,-83.04813000,-54.53796000
25.89225769,-82.31010000,-62.99525000
25.93994141,-79.03766000,-59.02657000
25.98762512,-82.79877000,-72.58438000
26.03530884,-83.00995000,-73.89725000
26.08299255,-78.47261000,-74.70727000
26.13067627,-83.65826000,-57.65358000
26.17835999,-81.36891000,-54.40873000
26.22604370,-78.45859000,-54.22144000
26.27372742,-85.78828000,-56.22411000
26.32141113,-80.60940000,-56.27534000
26.36909485,-79.43264000,-54.04110000
26.41677856,-84.55329000,-51.51474000
26.46446228,-80.98145000,-50.63848000
26.51214600,-78.66876000,-50.71677000
26.55982971,-87.24821000,-52.14919000
26.60751343,-79.33878000,-59.87698000
26.65519714,-79.64644000,-51.92151000
26.70288086,-85.89692000,-53.31376000
26.75056458,-79.69085000,-54.43251000
26.79824829,-80.11750000,-50.77403000
26.84593201,-85.88100000,-48.31345000
26.89361572,-79.33099000,-52.21643000
26.94129944,-79.78921000,-53.84524000
26.98898315,-86.48970000,-54.97235000
27.03666687,-78.42574000,-65.02210000
27.08435059,-81.59031000,-50.33326000
27.13203430,-83.87177000,-48.14613000
27.17971802,-79.23901000,-48.65230000
27.22740173,-81.23855000,-49.65001000
27.27508545,-84.88071000,-49.98139000
27.32276917,-78.37153000,-54.38132000
27.37045288,-82.09441000,-53.52656000
27.41813660,-82.79011000,-49.67532000
27.46582031,-78.42126000,-52.98665000
27.51350403,-83.87608000,-60.85167000
27.56118774,-82.03750000,-61.12424000
27.60887146,-79.08470000,-53.89739000
27.65655518,-83.08894000,-49.87904000
27.70423889,-82.24416000,-49.72321000
27.75192261,-78.22870000,-53.01464000
27.79960632,-85.67130000,-55.74192000
27.84729004,-80.29221000,-50.58048000
27.89497375,-79.16772000,-48.34618000
27.94265747,-85.34067000,-49.78464000
27.99034119,-80.71328000,-45.23887000
28.03802490,-79.26274000,-44.38031000
28.08570862,-85.68749000,-44.78192000
28.13339233,-79.95386000,-46.10563000
28.18107605,-79.00069000,-50.91625000
28.22875977,-87.49534000,-55.45848000
28.27644348,-79.02426000,-51.74984000
28.32412720,-80.49289000,-59.28511000
28.37181091,-85.04510000,-53.82012000
28.41949463,-79.72068000,-52.73807000
28.46717834,-79.98237000,-70.30123000
28.51486206,-86.68458000,-54.88643000
28.56254578,-78.55506000,-57.03820000
28.61022949,-80.82763000,-55.07437000
28.65791321,-84.42216000,-51.46865000
28.70559692,-78.66833000,-51.24293000
28.75328064,-82.14538000,-53.40630000
28.80096436,-83.70779000,-59.69940000
28.84864807,-79.01263000,-55.85759000
28.89633179,-81.56172000,-52.01881000
28.94401550,-83.86923000,-50.41719000
28.99169922,-78.08035000,-49.87023000
29.03938293,-83.80652000,-51.99519000
29.08706665,-81.56432000,-53.35471000
29.13475037,-78.97372000,-63.17356000
29.18243408,-83.79548000,-66.57830000
29.23011780,-82.08902000,-70.43423000
29.27780151,-78.71978000,-62.16491000
29.32548523,-84.33725000,-56.16412000
29.37316895,-80.89320000,-51.83855000
29.42085266,-78.51918000,-53.82861000
29.46853638,-86.75569000,-55.53450000
29.51622009,-79.93797000,-56.54725000
29.56390381,-79.72454000,-61.35975000
29.61158752,-85.05347000,-55.81984000
29.65927124,-80.50221000,-57.95340000
29.70695496,-79.05728000,-55.90651000
29.75463867,-87.39738000,-48.89236000
29.80232239,-79.03036000,-46.19564000
29.85000610,-79.89440000,-48.19399000
29.89768982,-85.79146000,-52.05493000
29.94537354,-79.20816000,-48.73534000
29.99305725,-80.76778000,-53.62394000
30.04074097,-85.23835000,-61.49823000
30.08842468,-79.21490000,-57.28905000
30.13610840,-80.28209000,-49.75504000
30.18379211,-85.75217000,-47.66582000
30.23147583,-78.21875000,-50.50146000
30.27915955,-82.19978000,-54.33009000
30.32684326,-83.08673000,-55.03998000
30.37452698,-79.05482000,-51.13645000
30.42221069,-82.10853000,-50.83799000
30.46989441,-83.81417000,-51.66334000
30.51757813,-78.46918000,-53.82140000
30.56526184,-82.71822000,-56.96487000
30.61294556,-82.16785000,-61.62513000
30.66062927,-78.32990000,-51.22148000
30.70831299,-84.93295000,-49.67005000
30.75599670,-81.18118000,-57.97357000
30.80368042,-79.25482000,-67.71094000
30.85136414,-83.88803000,-60.72044000
30.89904785,-81.61440000,-54.30140000
30.94673157,-78.44834000,-58.60107000
30.99441528,-86.38877000,-60.14065000
31.04209900,-79.81230000,-61.30031000
31.08978271,-79.27724000,-56.53515000
31.13746643,-85.99481000,-60.28527000
31.18515015,-80.05988000,-53.85643000
31.23283386,-79.74447000,-53.66776000
31.28051758,-85.79620000,-71.16985000
31.32820129,-79.70142000,-59.05948000
31.37588501,-79.32072000,-56.56905000
31.42356873,-87.33447000,-56.75555000
31.47125244,-78.64855000,-57.11460000
31.51893616,-80.95337000,-58.14357000
31.56661987,-84.55450000,-71.27969000
31.61430359,-79.41282000,-54.70918000
31.66198730,-80.66636000,-49.81714000
31.70967102,-85.71152000,-52.63960000
31.75735474,-78.50244000,-52.21069000
31.80503845,-81.30425000,-51.70678000
31.85272217,-83.74368000,-54.52015000
31.90040588,-78.42570000,-55.62386000
31.94808960,-83.05666000,-60.19215000
31.99577332,-82.72636000,-58.56968000
32.04345703,-79.06442000,-58.55836000
32.09114075,-82.32269000,-56.45281000
32.13882446,-83.08872000,-54.58634000
32.18650818,-78.13790000,-61.62083000
32.23419189,-84.58241000,-63.46954000
32.28187561,-80.91503000,-53.99858000
32.32955933,-78.95408000,-50.13137000
32.37724304,-84.80711000,-54.13952000
32.42492676,-81.25037000,-79.46887000
32.47261047,-79.04622000,-55.06750000
32.52029419,-84.94820000,-50.60772000
32.56797791,-80.49248000,-51.24094000
32.61566162,-78.67490000,-61.78252000
32.66334534,-87.45982000,-59.96917000
32.71102905,-79.38318000,-54.58612000
32.75871277,-80.05006000,-60.24420000
32.80639648,-85.24846000,-52.16970000
32.85408020,-80.06148000,-56.02739000
32.90176392,-79.55569000,-58.85339000
32.94944763,-87.08066000,-52.06894000
32.99713135,-78.82180000,-54.04010000
33.04481506,-80.21374000,-57.38041000
33.09249878,-85.36984000,-55.54595000
33.14018250,-78.80934000,-75.82597000
33.18786621,-81.49617000,-55.19278000
33.23554993,-84.37772000,-54.75731000
33.28323364,-79.14629000,-60.41710000
33.33091736,-80.88713000,-59.85972000
33.37860107,-84.90353000,-53.79375000
33.42628479,-78.11572000,-56.39061000
33.47396851,-82.85159000,-60.22560000
33.52165222,-82.32086000,-57.02027000
33.56933594,-78.91069000,-69.08221000
33.61701965,-83.08020000,-61.40150000
33.66470337,-82.79684000,-67.12802000
33.71238708,-78.64793000,-54.05176000
33.76007080,-83.39687000,-54.32350000
33.80775452,-81.61338000,-49.18005000
33.85543823,-78.32883000,-47.06362000
33.90312195,-85.97597000,-54.92755000
33.95080566,-80.43979000,-50.21318000
33.99848938,-79.45720000,-49.52657000
34.04617310,-84.61784000,-60.17210000
34.09385681,-81.02675000,-74.60661000
34.14154053,-78.77266000,-57.05576000
34.18922424,-86.87491000,-61.73704000
34.23690796,-79.43892000,-57.01608000
34.28459167,-79.44873000,-63.41668000
34.33227539,-86.29553000,-54.33113000
34.37995911,-79.49420000,-53.85783000
34.42764282,-80.30072000,-54.93122000
34.47532654,-85.52739000,-57.58505000
34.52301025,-79.50516000,-53.86232000
34.57069397,-79.74908000,-51.44024000
34.61837769,-86.77329000,-53.40965000
34.66606140,-78.38113000,-57.61193000
34.71374512,-81.45435000,-63.02155000
34.76142883,-83.87914000,-67.23409000
34.80911255,-79.14354000,-55.30450000
34.85679626,-81.46590000,-51.63543000
34.90447998,-84.63191000,-55.27988000
34.95216370,-78.53532000,-66.06432000
34.99984741,-81.86469000,-63.37419000
35.04753113,-83.07030000,-53.42719000
35.09521484,-78.27102000,-49.56971000
35.14289856,-84.02897000,-50.67272000
35.19058228,-81.81930000,-56.98273000
35.23826599,-79.15010000,-53.36961000
35.28594971,-83.15581000,-48.12458000
35.33363342,-82.34269000,-56.61097000
35.38131714,-78.29756000,-55.02560000
35.42900085,-85.33741000,-54.31382000
35.47668457,-80.37075000,-51.91928000
35.52436829,-78.98831000,-49.67917000
35.57205200,-85.73056000,-47.27839000
35.61973572,-80.50316000,-48.62474000
35.66741943,-79.44548000,-51.43111000
35.71510315,-85.37692000,-55.72253000
35.76278687,-80.15712000,-63.40297000
35.81047058,-78.93214000,-61.56261000
35.85815430,-87.74212000,-57.65033000
35.90583801,-78.94286000,-61.27306000
35.95352173,-80.41042000,-61.92997000
36.00120544,-85.08819000,-54.98986000
36.04888916,-79.66069000,-54.24195000
36.09657288,-80.16534000,-48.78284000
36.14425659,-86.35970000,-51.10908000
36.19194031,-78.70530000,-55.74886000
36.23962402,-80.61507000,-57.22146000
36.28730774,-84.75717000,-50.23211000
36.33499146,-78.49892000,-47.59722000
36.38267517,-82.29560000,-50.24676000
36.43035889,-83.43596000,-56.75019000
36.47804260,-79.11607000,-62.73170000
36.52572632,-81.60327000,-57.47282000
36.57341003,-84.02568000,-59.41902000
36.62109375,-78.11517000,-54.80510000
36.66877747,-83.54285000,-58.62175000
36.71646118,-81.62378000,-53.30389000
36.76414490,-78.81458000,-51.64473000
36.81182861,-84.12360000,-53.47337000
36.85951233,-81.86027000,-58.28791000
36.90719604,-78.90055000,-62.68836000
36.95487976,-84.08893000,-65.02854000
37.00256348,-81.12749000,-56.46105000
37.05024719,-78.42372000,-53.06648000
37.09793091,-86.90278000,-53.32132000
37.14561462,-79.81673000,-56.88272000
37.19329834,-79.69047000,-51.29517000
37.24098206,-85.15462000,-50.73895000
37.28866577,-80.48235000,-49.39386000
37.33634949,-79.20227000,-48.68153000
37.38403320,-86.99277000,-51.50886000
37.43171692,-79.16523000,-56.24931000
37.47940063,-79.69344000,-55.96992000
37.52708435,-86.19528000,-68.77225000
37.57476807,-79.02023000,-54.34578000
37.62245178,-80.92542000,-52.48359000
37.67013550,-84.92651000,-57.33730000
37.71781921,-79.35442000,-62.31644000
37.76550293,-80.29092000,-58.35319000
37.81318665,-85.95847000,-60.40248000
37.86087036,-78.21937000,-61.56998000
37.90855408,-82.00072000,-63.53596000
37.95623779,-83.13829000,-63.48091000
38.00392151,-78.91901000,-57.74214000
38.05160522,-82.37609000,-67.29967000
38.09928894,-83.55244000,-58.57272000
38.14697266,-78.64571000,-55.53784000
38.19465637,-82.50561000,-54.85759000
38.24234009,-82.43974000,-65.90784000
38.29002380,-78.20913000,-55.06340000
38.33770752,-85.03218000,-56.47976000
38.38539124,-81.01549000,-58.78124000
38.43307495,-79.26563000,-53.56261000
38.48075867,-84.00787000,-55.09083000
38.52844238,-81.63982000,-64.97433000
38.57612610,-78.55880000,-52.66743000
38.62380981,-85.99689000,-56.99048000
38.67149353,-79.93081000,-57.31829000
38.71917725,-79.08693000,-61.67648000
38.76686096,-86.42094000,-54.32269000
38.81454468,-79.85267000,-59.78689000
38.86222839,-79.91080000,-53.76671000
38.90991211,-85.50167000,-50.20252000
38.95759583,-79.87624000,-52.45613000
39.00527954,-79.29676000,-60.50358000
39.05296326,-87.53368000,-56.82848000
39.10064697,-78.61384000,-51.69698000
39.14833069,-80.81020000,-49.75058000
39.19601440,-84.62746000,-58.46163000
39.24369812,-79.30412000,-54.70606000
39.29138184,-80.88644000,-49.44240000
39.33906555,-85.38708000,-50.24894000
39.38674927,-78.67233000,-58.18083000
39.43443298,-81.10661000,-56.30657000
39.48211670,-84.06729000,-54.46206000
39.52980042,-78.28085000,-61.98421000
39.57748413,-83.15631000,-58.83846000
39.62516785,-82.51160000,-59.81619000
39.67285156,-79.11768000,-57.73452000
39.72053528,-82.42027000,-48.92661000
39.76821899,-83.16380000,-48.15709000
39.81590271,-78.21537000,-53.50103000
39.86358643,-84.25987000,-66.70512000
39.91127014,-81.01831000,-56.84851000
39.95895386,-78.77580000,-56.49634000
40.00663757,-85.17827000,-53.35265000
40.05432129,-81.02026000,-57.34443000
40.10200500,-79.21942000,-74.31174000
40.14968872,-84.71611000,-55.17954000
40.19737244,-80.70367000,-53.42540000
40.24505615,-78.61982000,-59.00967000
40.29273987,-87.56344000,-49.32835000
40.34042358,-79.31092000,-46.27230000
40.38810730,-79.95693000,-48.25959000
40.43579102,-85.37837000,-56.92989000
40.48347473,-79.98423000,-50.11223000
40.53115845,-79.73737000,-51.97136000
40.57884216,-86.67096000,-69.42076000
40.62652588,-78.98283000,-54.73711000
40.67420959,-80.02209000,-50.21395000
40.72189331,-85.76277000,-55.14848000
40.76957703,-78.64104000,-60.42466000
40.81726074,-81.61227000,-55.85999000
40.86494446,-84.11839000,-56.62429000
40.91262817,-79.24044000,-53.21394000
40.96031189,-80.94888000,-53.51216000
41.00799561,-85.02526000,-54.01321000
41.05567932,-78.16045000,-64.33500000
41.10336304,-82.59696000,-56.94839000
41.15104675,-82.41571000,-52.17980000
41.19873047,-78.74712000,-53.89881000
41.24641418,-83.38319000,-58.88076000
41.29409790,-82.53413000,-67.72697000
41.34178162,-78.82524000,-58.84171000
41.38946533,-83.20830000,-52.97060000
41.43714905,-81.86536000,-50.54736000
41.48483276,-78.24435000,-51.88976000
41.53251648,-86.01123000,-55.91329000
41.58020020,-80.32665000,-51.47132000
41.62788391,-79.41057000,-53.17978000
41.67556763,-84.78647000,-52.39574000
41.72325134,-80.98560000,-51.24730000
41.77093506,-78.92081000,-56.28451000
41.81861877,-86.44348000,-55.47688000
41.86630249,-79.58958000,-50.95379000
41.91398621,-79.26059000,-54.20171000
41.96166992,-86.73840000,-58.53135000
42.00935364,-79.30193000,-47.20498000
42.05703735,-80.43555000,-44.87787000
42.10472107,-85.26127000,-50.06048000
42.15240479,-79.63958000,-66.65264000
42.20008850,-79.77391000,-67.51619000
42.24777222,-86.90695000,-62.00664000
42.29545593,-78.39238000,-64.70270000
42.34313965,-81.25677000,-57.81081000
42.39082336,-83.98556000,-50.88718000
42.43850708,-78.99813000,-48.42118000
42.48619080,-81.71693000,-54.12203000
42.53387451,-84.31589000,-55.65190000
42.58155823,-78.71381000,-51.02198000
42.62924194,-81.69176000,-53.48158000
42.67692566,-83.37312000,-59.23917000
42.72460938,-78.15849000,-53.06452000
42.77229309,-84.06311000,-53.76316000
42.81997681,-81.66154000,-51.29874000
42.86766052,-79.14794000,-51.25100000
42.91534424,-83.31102000,-56.13586000
42.96302795,-82.34162000,-61.54293000
43.01071167,-78.41441000,-53.63056000
43.05839539,-84.96650000,-51.09639000
43.10607910,-80.51115000,-49.59417000
43.15376282,-78.80428000,-50.33935000
43.20144653,-86.13846000,-50.13249000
43.24913025,-80.28432000,-55.97732000
43.29681396,-79.59692000,-73.88504000
43.34449768,-85.16280000,-57.53771000
43.39218140,-80.33260000,-54.34544000
43.43986511,-78.92197000,-58.87264000
43.48754883,-87.80072000,-69.94315000
43.53523254,-78.91902000,-60.05659000
43.58291626,-80.26250000,-52.25464000
43.63059998,-85.24189000,-49.24709000
43.67828369,-79.53736000,-50.68203000
43.72596741,-80.37743000,-55.26150000
43.77365112,-85.96455000,-58.10833000
43.82133484,-78.88228000,-72.94205000
43.86901855,-80.44399000,-52.48105000
43.91670227,-85.12662000,-52.30994000
43.96438599,-78.35902000,-69.84795000
44.01206970,-82.35470000,-55.56854000
44.05975342,-83.23416000,-54.42536000
44.10743713,-79.15738000,-66.53638000
44.15512085,-81.72087000,-50.12320000
44.20280457,-84.06403000,-48.17269000
44.25048828,-78.20135000,-49.31927000
44.29817200,-83.24268000,-52.48500000
44.34585571,-81.75792000,-53.96803000
44.39353943,-78.63676000,-53.05559000
44.44122314,-84.45644000,-51.37146000
44.48890686,-81.60813000,-48.00130000
44.53659058,-79.06532000,-49.01615000
44.58427429,-83.92805000,-54.02198000
44.63195801,-81.34717000,-58.99143000
44.67964172,-78.38068000,-55.82572000
44.72732544,-86.87081000,-52.37331000
44.77500916,-79.75533000,-51.56969000
44.82269287,-79.58827000,-57.85006000
44.87037659,-85.36345000,-59.15659000
44.91806030,-80.38522000,-56.41872000
44.96574402,-79.38235000,-60.01406000
45.01342773,-86.54599000,-58.91425000
45.06111145,-79.33867000,-58.50661000
45.10879517,-79.51956000,-53.88313000
45.15647888,-86.63121000,-50.52385000
45.20416260,-78.85267000,-54.23418000
45.25184631,-81.01370000,-69.15372000
45.29953003,-84.70186000,-50.76378000
45.34721375,-79.43904000,-49.65490000
45.39489746,-80.36754000,-56.18259000
45.44258118,-86.01610000,-53.51049000
45.49026489,-78.27445000,-48.15268000
45.53794861,-81.75838000,-50.97830000
45.58563232,-83.27923000,-54.92904000
45.63331604,-78.75039000,-48.15252000
45.68099976,-82.65038000,-44.75726000
45.72868347,-83.25283000,-45.48782000
45.77636719,-78.82031000,-52.10488000
45.82405090,-82.36502000,-47.98046000
45.87173462,-82.71081000,-50.37460000
45.91941833,-78.13477000,-53.19703000
45.96710205,-84.98946000,-49.41583000
46.01478577,-80.91363000,-52.76686000
46.06246948,-79.20739000,-58.81001000
46.11015320,-84.21988000,-47.35479000
46.15783691,-81.57243000,-45.49222000
46.20552063,-78.71001000,-47.13462000
46.25320435,-85.58995000,-54.49539000
46.30088806,-80.09995000,-49.74429000
46.34857178,-78.90982000,-49.29360000
46.39625549,-86.85356000,-51.63468000
46.44393921,-79.65559000,-54.45907000
46.49162292,-80.02598000,-61.57522000
46.53930664,-85.30903000,-51.13610000
46.58699036,-80.00508000,-51.23691000
46.63467407,-79.33466000,-51.41878000
46.68235779,-87.54280000,-48.27931000
46.73004150,-78.63660000,-50.40235000
46.77772522,-80.61584000,-57.34095000
46.82540894,-84.80403000,-54.24654000
46.87309265,-79.14814000,-56.47928000
46.92077637,-81.12071000,-53.85774000
46.96846008,-85.01816000,-50.62127000
47.01614380,-78.85356000,-51.60195000
47.06382751,-80.96570000,-54.00764000
47.11151123,-84.40223000,-60.40547000
47.15919495,-78.17606000,-61.45218000
47.20687866,-83.14503000,-54.10616000
47.25456238,-82.36843000,-53.97834000
47.30224609,-79.10293000,-59.28363000
47.34992981,-82.59566000,-52.91985000
47.39761353,-83.12653000,-50.61634000
47.44529724,-78.33872000,-52.65686000
47.49298096,-83.92502000,-53.10117000
47.54066467,-81.18521000,-57.47858000
47.58834839,-78.59699000,-63.06119000
47.63603210,-85.53479000,-54.46712000
47.68371582,-80.78893000,-47.96474000
47.73139954,-79.35764000,-49.40722000
47.77908325,-84.58319000,-51.40434000
47.82676697,-80.87935000,-49.44600000
47.87445068,-78.62173000,-51.38493000
47.92213440,-87.46975000,-54.28505000
47.96981812,-79.29945000,-73.19009000
48.01750183,-79.80556000,-55.45439000
48.06518555,-85.61621000,-65.14934000
48.11286926,-79.84445000,-72.30742000
48.16055298,-79.94161000,-58.21212000
48.20823669,-86.23450000,-54.01408000
48.25592041,-79.16810000,-54.80625000
48.30360413,-79.87314000,-65.29597000
48.35128784,-86.17000000,-56.19027000
48.39897156,-78.50580000,-52.30022000
48.44665527,-81.64040000,-54.66704000
48.49433899,-83.94471000,-52.22052000
48.54202271,-79.26961000,-55.28374000
48.58970642,-81.07932000,-54.87610000
48.63739014,-85.00648000,-49.58923000
48.68507385,-78.25574000,-49.31101000
48.73275757,-82.32140000,-53.06622000
48.78044128,-82.58868000,-55.50459000
48.82812500,-78.56905000,-50.80429000
48.87580872,-83.67173000,-50.87957000
48.92349243,-82.25876000,-58.05427000
48.97117615,-78.98249000,-55.83448000
49.01885986,-83.10497000,-58.55248000
49.06654358,-82.09328000,-59.35032000
49.11422729,-78.21233000,-53.24500000
49.16191101,-85.88634000,-49.58451000
49.20959473,-80.27869000,-50.30192000
49.25727844,-79.30026000,-53.69805000
49.30496216,-85.05051000,-52.59615000
49.35264587,-80.86508000,-48.93156000
49.40032959,-79.09941000,-49.44476000
49.44801331,-86.01578000,-54.21391000
49.49569702,-79.77740000,-53.20518000
49.54338074,-79.10190000,-54.78268000
49.59106445,-87.17536000,-60.74416000
49.63874817,-79.13495000,-57.33190000
49.68643188,-80.50084000,-58.85636000
49.73411560,-85.09772000,-60.26711000
49.78179932,-79.71400000,-55.50418000
49.82948303,-79.86182000,-54.70035000
49.87716675,-86.86058000,-55.41333000
49.92485046,-78.45858000,-64.69014000
49.97253418,-81.02714000,-50.68041000
50.02021790,-84.18542000,-49.59908000
50.06790161,-78.82371000,-52.22235000
50.11558533,-81.96313000,-59.23504000
50.16326904,-83.98010000,-55.33554000
50.21095276,-78.88638000,-58.13293000
50.25863647,-81.58881000,-59.79844000
50.30632019,-83.66280000,-52.77964000
50.35400391,-78.09369000,-57.83552000
50.40168762,-83.97179000,-62.66235000
50.44937134,-81.57588000,-62.27906000
50.49705505,-79.07859000,-50.40788000
50.54473877,-83.54496000,-47.44999000
50.59242249,-82.24115000,-50.21111000
50.64010620,-78.56885000,-55.50221000
50.68778992,-84.60738000,-59.02075000
50.73547363,-80.70216000,-56.64920000
50.78315735,-78.63669000,-61.60122000
50.83084106,-86.51124000,-62.08275000
50.87852478,-80.08224000,-51.89678000
50.92620850,-79.69497000,-50.50678000
50.97389221,-85.05596000,-51.05035000
51.02157593,-80.45483000,-50.45181000
51.06925964,-78.97098000,-51.02279000
51.11694336,-87.65687000,-52.87777000
51.16462708,-78.95458000,-82.06526000
51.21231079,-80.07185000,-48.62181000
51.25999451,-85.49912000,-47.82632000
51.30767822,-79.36959000,-58.97323000
51.35536194,-80.59590000,-51.74749000
51.40304565,-85.55867000,-58.55705000
51.45072937,-79.06711000,-57.20002000
51.49841309,-80.32906000,-50.91856000
51.54609680,-85.48821000,-51.34919000
51.59378052,-78.26173000,-51.86341000
51.64146423,-82.31200000,-49.29287000
51.68914795,-83.11599000,-50.43755000
51.73683167,-79.12996000,-62.38080000
51.78451538,-81.90632000,-54.52630000
51.83219910,-83.97673000,-57.53599000
51.87988281,-78.33154000,-69.36823000
51.92756653,-82.94567000,-53.81880000
51.97525024,-81.95718000,-52.90657000
52.02293396,-78.46223000,-60.22465000
52.07061768,-84.74957000,-58.82938000
52.11830139,-81.36413000,-59.60504000
52.16598511,-79.19163000,-58.02581000
52.21366882,-83.86371000,-49.70207000
52.26135254,-81.52171000,-53.03310000
52.30903625,-78.39351000,-60.27937000
52.35671997,-86.66718000,-49.98219000
52.40440369,-79.75839000,-48.41639000
52.45208740,-79.43402000,-50.39651000
52.49977112,-85.66944000,-51.74949000
52.54745483,-80.22666000,-57.90903000
52.59513855,-79.57931000,-51.14797000
52.64282227,-86.11697000,-53.54698000
52.69050598,-79.53361000,-56.83163000
52.73818970,-79.38922000,-56.84374000
52.78587341,-87.04604000,-55.79169000
52.83355713,-78.72208000,-50.77320000
52.88124084,-81.01780000,-48.38528000
52.92892456,-84.57714000,-47.49175000
52.97660828,-79.45543000,-48.47166000
53.02429199,-80.50627000,-51.37739000
53.07197571,-85.91251000,-55.07145000
53.11965942,-78.37948000,-56.85979000
53.16734314,-81.50603000,-54.14635000
53.21502686,-83.50096000,-52.22992000
53.26271057,-78.57133000,-50.80608000
53.31039429,-82.89642000,-52.40572000
53.35807800,-82.95514000,-56.93138000
53.40576172,-78.97080000,-53.75660000
53.45344543,-82.30579000,-49.56564000
53.50112915,-82.94506000,-48.92260000
53.54881287,-78.11311000,-58.90871000
53.59649658,-84.81361000,-56.40741000
53.64418030,-80.88295000,-56.94918000
53.69186401,-79.08940000,-58.01658000
53.73954773,-84.51099000,-57.92926000
53.78723145,-81.42396000,-54.18732000
53.83491516,-78.88750000,-54.08642000
53.88259888,-85.21622000,-52.87038000
53.93028259,-80.30457000,-57.09230000
53.97796631,-78.76425000,-62.18914000
54.02565002,-87.23154000,-53.60353000
54.07333374,-79.48933000,-51.25301000
54.12101746,-80.07191000,-59.96204000
54.16870117,-85.22739000,-57.74332000
54.21638489,-80.06807000,-53.47194000
54.26406860,-79.43153000,-54.94774000
54.31175232,-87.35963000,-68.13004000
54.35943604,-78.71503000,-54.37967000
54.40711975,-80.39813000,-50.57472000
54.45480347,-85.07504000,-50.51485000
54.50248718,-78.96703000,-49.87042000
54.55017090,-81.34125000,-47.47877000
54.59785461,-84.65491000,-50.32879000
54.64553833,-79.02476000,-59.67717000
54.69322205,-80.89229000,-63.72284000
54.74090576,-84.70536000,-56.95662000
54.78858948,-78.12053000,-53.41608000
54.83627319,-83.02496000,-56.75370000
54.88395691,-82.30640000,-63.75121000
54.93164063,-79.02253000,-55.09746000
54.97932434,-82.83652000,-60.90320000
55.02700806,-82.98393000,-55.10767000
55.07469177,-78.49677000,-47.49156000
55.12237549,-83.61713000,-45.05412000
55.17005920,-81.40232000,-46.92753000
55.21774292,-78.43768000,-51.59642000
55.26542664,-85.82321000,-47.93555000
55.31311035,-80.58220000,-49.29710000
55.36079407,-79.44048000,-54.65857000
55.40847778,-84.55597000,-52.79652000
55.45616150,-80.99307000,-56.01004000
55.50384521,-78.68050000,-55.56454000
55.55152893,-87.20107000,-49.32335000
55.59921265,-79.34963000,-55.75083000
55.64689636,-79.61848000,-55.67181000
55.69458008,-85.94972000,-49.34199000
55.74226379,-79.66338000,-53.02551000
55.78994751,-80.14568000,-64.57806000
55.83763123,-85.82597000,-64.08561000
55.88531494,-79.35741000,-60.59814000
55.93299866,-79.77956000,-58.82234000
55.98068237,-86.53740000,-53.20136000
56.02836609,-78.41602000,-48.93634000
56.07604980,-81.57563000,-53.74327000
56.12373352,-83.86668000,-48.69448000
56.17141724,-79.22908000,-48.45575000
56.21910095,-81.26868000,-49.19939000
56.26678467,-84.85108000,-49.50653000
56.31446838,-78.39334000,-54.94467000
56.36215210,-82.05880000,-65.00974000
56.40983582,-82.82764000,-55.19547000
56.45751953,-78.39799000,-53.33864000
56.50520325,-83.90428000,-52.15830000
56.55288696,-82.00324000,-52.07037000
56.60057068,-79.09789000,-61.66374000
56.64825439,-83.09289000,-52.89620000
56.69593811,-82.26383000,-54.55541000
56.74362183,-78.23533000,-61.16494000
56.79130554,-85.62794000,-56.26373000
56.83898926,-80.29937000,-53.52189000
56.88667297,-79.14326000,-52.51073000
56.93435669,-85.39364000,-50.04905000
56.98204041,-80.68486000,-51.13907000
57.02972412,-79.28984000,-53.07030000
57.07740784,-85.63786000,-51.38637000
57.12509155,-79.98359000,-51.73161000
57.17277527,-78.98748000,-59.26611000
57.22045898,-87.54032000,-56.74085000
57.26814270,-79.00930000,-52.38146000
57.31582642,-80.48576000,-56.04519000
57.36351013,-85.04436000,-65.21256000
57.41119385,-79.71648000,-65.39017000
57.45887756,-80.00602000,-53.74813000
57.50656128,-86.64487000,-48.99574000
57.55424500,-78.57429000,-51.72546000
57.60192871,-80.79544000,-50.70217000
57.64961243,-84.46666000,-49.41473000
57.69729614,-78.64295000,-51.06406000
57.74497986,-82.17157000,-48.57220000
57.79266357,-83.66541000,-49.84043000
57.84034729,-79.03069000,-54.70747000
57.88803101,-81.56284000,-55.62831000
57.93571472,-83.89789000,-61.28870000
57.98339844,-78.08202000,-67.62029000
58.03108215,-83.77270000,-55.30032000
58.07876587,-81.56804000,-52.36197000
58.12644958,-78.95299000,-60.33739000
58.17413330,-83.84062000,-66.49612000
58.22181702,-82.05906000,-70.77727000
58.26950073,-78.74574000,-67.23077000
58.31718445,-84.29696000,-54.16555000
58.36486816,-80.92645000,-47.63054000
58.41255188,-78.50259000,-45.49178000
58.46023560,-86.78680000,-47.35820000
58.50791931,-79.91730000,-52.99409000
58.55560303,-79.72418000,-57.16676000
58.60328674,-85.06111000,-54.61319000
58.65097046,-80.50439000,-56.07762000
58.69865417,-79.07529000,-55.95939000
58.74633789,-87.34481000,-53.03352000
58.79402161,-79.04675000,-53.19675000
58.84170532,-79.86480000,-53.54988000
58.88938904,-85.84561000,-49.20150000
58.93707275,-79.18082000,-51.65644000
58.98475647,-80.79368000,-56.41441000
59.03244019,-85.18918000,-52.33645000
59.08012390,-79.23746000,-53.54628000
59.12780762,-80.27912000,-59.61258000
59.17549133,-85.78938000,-53.66027000
59.22317505,-78.21545000,-49.05617000
59.27085876,-82.17525000,-48.44416000
59.31854248,-83.08846000,-50.54545000
59.36622620,-79.03824000,-52.17816000
59.41390991,-82.14517000,-60.70226000
59.46159363,-83.78072000,-64.64594000
59.50927734,-78.49372000,-52.55146000
59.55696106,-82.68396000,-49.00404000
59.60464478,-82.20551000,-52.26752000
59.65232849,-78.31017000,-49.55126000
59.70001221,-84.95534000,-47.47059000
59.74769592,-81.15404000,-49.08345000
59.79537964,-79.26064000,-56.23295000
59.84306335,-83.89920000,-69.45299000
59.89074707,-81.62373000,-53.61119000
59.93843079,-78.46121000,-49.73629000
59.98611450,-86.33591000,-49.71093000
60.03379822,-79.82571000,-53.57418000
60.08148193,-79.25006000,-58.80478000
60.12916565,-86.05339000,-65.29095000
60.17684937,-80.03056000,-51.12492000
60.22453308,-79.77048000,-48.47952000
60.27221680,-85.74844000,-50.94077000
60.31990051,-79.72829000,-63.38945000
60.36758423,-79.31352000,-58.78702000
60.41526794,-87.37321000,-55.70995000
60.46295166,-78.64013000,-56.55772000
60.51063538,-80.93700000,-56.77903000
60.55831909,-84.55840000,-58.27275000
60.60600281,-79.40091000,-52.16301000
60.65368652,-80.69601000,-49.26772000
60.70137024,-85.67000000,-54.89877000
60.74905396,-78.52530000,-56.43562000
60.79673767,-81.27312000,-54.96001000
60.84442139,-83.78784000,-58.47433000
60.89210510,-78.40302000,-57.37074000
60.93978882,-83.07718000,-70.57731000
60.98747253,-82.69184000,-62.87422000
61.03515625,-79.07599000,-55.39845000
61.08283997,-82.33156000,-52.49765000
61.13052368,-83.10601000,-59.41326000
61.17820740,-78.14587000,-57.81565000
61.22589111,-84.53881000,-54.35568000
61.27357483,-80.92555000,-55.27394000
61.32125854,-78.92949000,-53.16555000
61.36894226,-84.85924000,-52.14767000
61.41662598,-81.21868000,-55.87034000
61.46430969,-79.07224000,-53.64548000
61.51199341,-84.90939000,-50.42236000
61.55967712,-80.52374000,-53.17101000
61.60736084,-78.66365000,-60.98438000
61.65504456,-87.48625000,-50.53627000
61.70272827,-79.36929000,-49.97792000
61.75041199,-80.04101000,-51.94138000
61.79809570,-85.26013000,-52.31077000
61.84577942,-80.05486000,-49.43493000
61.89346313,-79.57954000,-47.31306000
61.94114685,-87.02625000,-49.89452000
61.98883057,-78.84267000,-55.12638000
62.03651428,-80.18439000,-53.78695000
62.08419800,-85.42343000,-57.59902000
62.13188171,-78.78387000,-56.77608000
62.17956543,-81.51752000,-53.15129000
62.22724915,-84.33601000,-54.25443000
62.27493286,-79.16325000,-54.71096000
62.32261658,-80.89153000,-63.98173000
62.37030029,-84.92886000,-50.20389000
62.41798401,-78.11884000,-47.89607000
62.46566772,-82.81791000,-55.91642000
62.51335144,-82.32934000,-63.78008000
62.56103516,-78.88907000,-61.78241000
62.60871887,-83.12292000,-60.11107000
62.65640259,-82.76147000,-57.33644000
62.70408630,-78.67364000,-52.57841000
62.75177002,-83.36510000,-53.56422000
62.79945374,-81.64960000,-58.77640000
62.84713745,-78.31377000,-52.57286000
62.89482117,-85.99091000,-53.28371000
62.94250488,-80.41991000,-53.27440000
62.99018860,-79.45485000,-57.56691000
63.03787231,-84.63570000,-54.69001000
63.08555603,-81.02615000,-49.42511000
63.13323975,-78.79138000,-48.98803000
63.18092346,-86.81525000,-51.55331000
63.22860718,-79.45760000,-50.59853000
63.27629089,-79.42076000,-50.06007000
63.32397461,-86.35706000,-53.00896000
63.37165833,-79.46593000,-61.99791000
63.41934204,-80.32352000,-55.32075000
63.46702576,-85.48357000,-55.58141000
63.51470947,-79.52733000,-55.49999000
63.56239319,-79.74865000,-61.87411000
63.61007690,-86.80266000,-57.44688000
63.65776062,-78.37929000,-56.39603000
63.70544434,-81.42924000,-52.46948000
63.75312805,-83.88834000,-54.23101000
63.80081177,-79.12538000,-58.44291000
63.84849548,-81.50090000,-52.45623000
63.89617920,-84.58975000,-50.83649000
63.94386292,-78.56036000,-52.27214000
63.99154663,-81.83612000,-52.96249000
64.03923035,-83.11293000,-54.19582000
64.08691406,-78.25235000,-55.80217000
64.13459778,-84.04153000,-56.47060000
64.18228149,-81.79272000,-70.00981000
64.22996521,-79.15404000,-52.55038000
64.27764893,-83.17273000,-49.11075000
64.32533264,-82.34883000,-51.91820000
64.37301636,-78.31151000,-64.14705000
64.42070007,-85.28545000,-50.81796000
64.46838379,-80.38722000,-56.05331000
64.51606750,-78.96178000,-58.39674000
64.56375122,-85.78882000,-53.68478000
64.61143494,-80.47179000,-50.99377000
64.65911865,-79.46958000,-56.28933000
64.70680237,-85.34010000,-61.95298000
64.75448608,-80.18451000,-51.34935000
64.80216980,-78.92705000,-52.15994000
64.84985352,-87.76288000,-66.83830000
64.89753723,-78.93584000,-68.74031000
64.94522095,-80.39284000,-57.29607000
64.99290466,-85.10347000,-56.83680000
65.04058838,-79.64659000,-52.19075000
65.08827209,-80.19434000,-51.89074000
65.13595581,-86.30607000,-52.34272000
65.18363953,-78.72933000,-52.15996000
65.23132324,-80.58768000,-51.80652000
65.27900696,-84.80870000,-51.27609000
65.32669067,-78.47678000,-72.96214000
65.37437439,-82.31006000,-54.00014000
65.42205811,-83.40244000,-51.41264000
65.46974182,-79.12604000,-51.50360000
65.51742554,-81.61554000,-55.63749000
65.56510925,-84.03883000,-55.98646000
65.61279297,-78.12445000,-59.94946000
65.66047668,-83.50121000,-54.46352000
65.70816040,-81.63853000,-49.52527000
65.75584412,-78.78979000,-50.55249000
65.80352783,-84.17180000,-54.89431000
65.85121155,-81.82489000,-53.71957000
65.89889526,-78.92561000,-50.97333000
65.94657898,-84.06030000,-47.92159000
65.99426270,-81.16048000,-50.36222000
66.04194641,-78.41424000,-54.84379000
66.08963013,-86.90948000,-56.39391000
66.13731384,-79.80414000,-58.83534000
66.18499756,-79.67976000,-54.95055000
66.23268127,-85.17802000,-57.34706000
66.28036499,-80.47295000,-53.51756000
66.32804871,-79.22622000,-52.59096000
66.37573242,-86.92995000,-60.54499000
66.42341614,-79.18799000,-58.36311000
66.47109985,-79.66650000,-54.54139000
66.51878357,-86.25665000,-56.43032000
66.56646729,-78.99461000,-53.56912000
66.61415100,-80.94276000,-57.13844000
66.66183472,-84.88869000,-50.51083000
66.70951843,-79.37028000,-50.69168000
66.75720215,-80.29779000,-51.28504000
66.80488586,-85.97647000,-51.72254000
66.85256958,-78.22396000,-72.67253000
66.90025330,-81.96796000,-55.78735000
66.94793701,-83.15309000,-64.05904000
66.99562073,-78.89642000,-67.37020000
67.04330444,-82.41562000,-54.50523000
67.09098816,-83.51098000,-50.62129000
67.13867188,-78.67128000,-54.03128000
67.18635559,-82.48083000,-53.30238000
67.23403931,-82.47932000,-48.02610000
67.28172302,-78.19547000,-46.32523000
67.32940674,-85.03488000,-48.04864000
67.37709045,-80.99681000,-51.79295000
67.42477417,-79.26143000,-52.47320000
67.47245789,-84.03273000,-51.66024000
67.52014160,-81.63577000,-52.61771000
67.56782532,-78.57819000,-52.51729000
67.61550903,-85.93840000,-50.51439000
67.66319275,-79.95216000,-49.15821000
67.71087646,-79.06035000,-51.04473000
67.75856018,-86.48361000,-52.96532000
67.80624390,-79.82336000,-59.34482000
67.85392761,-79.93089000,-54.02135000
67.90161133,-85.46762000,-50.69333000
67.94929504,-79.89799000,-54.85390000
67.99697876,-79.29841000,-58.91652000
68.04466248,-87.54721000,-56.61179000
68.09234619,-78.61356000,-57.45302000
68.14002991,-80.78495000,-51.99941000
68.18771362,-84.64648000,-48.73597000
68.23539734,-79.28425000,-48.79583000
68.28308105,-80.91964000,-48.53534000
68.33076477,-85.33584000,-48.27252000
68.37844849,-78.69798000,-56.09182000
68.42613220,-81.08269000,-64.13078000
68.47381592,-84.11536000,-56.52253000
68.52149963,-78.26316000,-52.42437000
68.56918335,-83.16168000,-52.35212000
68.61686707,-82.48648000,-56.98906000
68.66455078,-79.11980000,-62.50151000
68.71223450,-82.44078000,-54.24691000
68.75991821,-83.16544000,-52.00339000
68.80760193,-78.23039000,-52.02797000
68.85528564,-84.21177000,-49.97710000
68.90296936,-81.03851000,-49.27376000
68.95065308,-78.74979000,-51.76388000
68.99833679,-85.23128000,-56.02850000
69.04602051,-80.98663000,-63.05885000
69.09370422,-79.24184000,-60.06959000
69.14138794,-84.69083000,-51.90714000
69.18907166,-80.73160000,-52.90522000
69.23675537,-78.61655000,-57.03419000
69.28443909,-87.56212000,-54.39939000
69.33212280,-79.30549000,-54.25497000
69.37980652,-79.93841000,-58.94516000
69.42749023,-85.40595000,-54.10323000
69.47517395,-79.96767000,-54.24387000
69.52285767,-79.76564000,-56.48994000
69.57054138,-86.60880000,-58.64014000
69.61822510,-79.00824000,-57.00325000
69.66590881,-79.99785000,-65.46240000
69.71359253,-85.82118000,-57.93298000
69.76127625,-78.61935000,-59.21188000
69.80895996,-81.62197000,-52.79379000
69.85664368,-84.08803000,-62.14558000
69.90432739,-79.24882000,-55.01655000
69.95201111,-80.96347000,-55.87880000
69.99969482,-85.03143000,-56.30427000
70.04737854,-78.17110000,-52.08633000
70.09506226,-82.55803000,-50.69033000
70.14274597,-82.43585000,-57.23312000
70.19042969,-78.72205000,-57.59098000
70.23811340,-83.42622000,-61.17188000
70.28579712,-82.49474000,-50.88163000
70.33348083,-78.84946000,-48.09488000
70.38116455,-83.18811000,-48.55511000
70.42884827,-81.90018000,-48.49527000
70.47653198,-78.23646000,-57.96885000
70.52421570,-86.00291000,-51.60606000
70.57189941,-80.31567000,-54.61720000
70.61958313,-79.39840000,-57.80468000
70.66726685,-84.81863000,-66.54254000
70.71495056,-80.97290000,-53.06697000
70.76263428,-78.94485000,-49.39016000
70.81031799,-86.38089000,-50.00690000
70.85800171,-79.61452000,-52.80844000
70.90568542,-79.23572000,-54.62946000
70.95336914,-86.80259000,-61.49277000
71.00105286,-79.27610000,-63.49241000
71.04873657,-80.44951000,-57.20182000
71.09642029,-85.23138000,-56.24819000
71.14410400,-79.65428000,-56.18221000
71.19178772,-79.78271000,-55.49976000
71.23947144,-86.91156000,-49.30528000
71.28715515,-78.39855000,-48.77148000
71.33483887,-81.22520000,-50.30386000
71.38252258,-84.00860000,-58.87097000
71.43020630,-78.97446000,-55.27454000
71.47789001,-81.75313000,-59.28705000
71.52557373,-84.26807000,-56.73811000
71.57325745,-78.73933000,-57.72373000
71.62094116,-81.67255000,-49.97080000
71.66862488,-83.41623000,-47.88452000
71.71630859,-78.14613000,-50.89750000
71.76399231,-84.05759000,-57.69038000
71.81167603,-81.64470000,-52.10004000
71.85935974,-79.14201000,-54.36691000
71.90704346,-83.33993000,-59.09689000
71.95472717,-82.33311000,-56.32539000
72.00241089,-78.43448000,-54.90015000
72.05009460,-84.91348000,-51.18627000
72.09777832,-80.53568000,-50.01877000
72.14546204,-78.77888000,-57.48759000
72.19314575,-86.19527000,-54.70797000
72.24082947,-80.25389000,-49.21988000
72.28851318,-79.61465000,-52.47863000
72.33619690,-85.14079000,-56.40685000
72.38388062,-80.35386000,-50.44495000
72.43156433,-78.92539000,-47.57952000
72.47924805,-87.79227000,-50.03520000
72.52693176,-78.92049000,-51.95454000
72.57461548,-80.23727000,-48.22897000
72.62229919,-85.27254000,-47.70779000
72.66998291,-79.51559000,-54.01809000
72.71766663,-80.40885000,-58.25513000
72.76535034,-85.90596000,-49.69006000
72.81303406,-78.90870000,-47.61887000
72.86071777,-80.42387000,-52.87979000
72.90840149,-85.17989000,-52.58546000
72.95608521,-78.34226000,-48.92596000
73.00376892,-82.35485000,-48.58428000
73.05145264,-83.21193000,-49.70574000
73.09913635,-79.15768000,-50.38974000
73.14682007,-81.74346000,-49.56797000
73.19450378,-84.05910000,-50.98286000
73.24218750,-78.21748000,-53.14375000
73.28987122,-83.19922000,-56.65679000
73.33755493,-81.78269000,-52.74820000
73.38523865,-78.61114000,-54.05523000
73.43292236,-84.50187000,-60.65952000
73.48060608,-81.57211000,-64.68703000
73.52828979,-79.08621000,-66.85767000
73.57597351,-83.91281000,-63.36156000
73.62365723,-81.37557000,-53.96123000
73.67134094,-78.37907000,-52.89975000
73.71902466,-86.85153000,-45.40987000
73.76670837,-79.75177000,-44.55888000
73.81439209,-79.56895000,-48.22538000
73.86207581,-85.40154000,-52.94381000
73.90975952,-80.36583000,-73.31973000
73.95744324,-79.40994000,-53.21676000
74.00512695,-86.48243000,-55.40174000
74.05281067,-79.36566000,-58.90482000
74.10049438,-79.49796000,-54.01517000
74.14817810,-86.69321000,-50.61766000
74.19586182,-78.83142000,-48.27654000
74.24354553,-81.01962000,-54.07524000
74.29122925,-84.67773000,-69.44562000
74.33891296,-79.44575000,-65.43346000
74.38659668,-80.38375000,-59.62563000
74.43428040,-86.01102000,-59.87533000
74.48196411,-78.28656000,-58.59793000
74.52964783,-81.72218000,-54.30992000
74.57733154,-83.30624000,-58.87209000
74.62501526,-78.72493000,-72.97754000
74.67269897,-82.68813000,-54.57311000
74.72038269,-83.20934000,-52.17651000
74.76806641,-78.84381000,-53.03125000
74.81575012,-82.35144000,-51.46791000
74.86343384,-82.74741000,-52.12211000
74.91111755,-78.12836000,-59.19333000
74.95880127,-84.97192000,-56.89143000
75.00648499,-80.90479000,-51.74619000
75.05416870,-79.19385000,-52.49937000
75.10185242,-84.25703000,-61.64639000
75.14953613,-81.55572000,-55.82764000
75.19721985,-78.73415000,-53.13876000
75.24490356,-85.53359000,-52.65442000
75.29258728,-80.12743000,-54.43749000
75.34027100,-78.88673000,-62.07927000
75.38795471,-86.91250000,-54.67155000
75.43563843,-79.62953000,-51.07553000
75.48332214,-80.03709000,-48.58018000
75.53100586,-85.29044000,-50.74737000
75.57868958,-80.01848000,-51.98871000
75.62637329,-79.34502000,-52.53938000
75.67405701,-87.52784000,-58.08798000
75.72174072,-78.64449000,-65.45659000
75.76942444,-80.58551000,-57.43372000
75.81710815,-84.83727000,-56.91906000
75.86479187,-79.12326000,-51.23362000
75.91247559,-81.15376000,-51.02872000
75.96015930,-84.96487000,-53.30312000
76.00784302,-78.87916000,-56.57197000
76.05552673,-80.95090000,-56.48634000
76.10321045,-84.44859000,-54.17461000
76.15089417,-78.16496000,-57.90092000
76.19857788,-83.13422000,-57.53691000
76.24626160,-82.35445000,-58.15739000
76.29394531,-79.09527000,-65.91532000
76.34162903,-82.62643000,-55.77721000
76.38931274,-83.11219000,-48.37911000
76.43699646,-78.35950000,-47.93132000
76.48468018,-83.87860000,-52.35005000
76.53236389,-81.21354000,-53.46747000
76.58004761,-78.57262000,-49.99384000
76.62773132,-85.58147000,-48.10914000
76.67541504,-80.75735000,-48.90793000
76.72309875,-79.37328000,-53.99797000
76.77078247,-84.57275000,-61.37334000
76.81846619,-80.89993000,-56.18008000
76.86614990,-78.62671000,-55.90412000
76.91383362,-87.44101000,-50.18399000
76.96151733,-79.30289000,-49.76851000
77.00920105,-79.78043000,-53.41589000
77.05688477,-85.65838000,-55.22130000
77.10456848,-79.82055000,-63.02987000
77.15225220,-79.97136000,-57.84574000
77.19993591,-86.17336000,-54.10580000
77.24761963,-79.19542000,-55.52208000
77.29530334,-79.85616000,-53.36988000
77.34298706,-86.22634000,-55.29543000
77.39067078,-78.48996000,-57.25693000
77.43835449,-81.63675000,-49.91060000
77.48603821,-83.92755000,-57.62102000
77.53372192,-79.26805000,-57.12971000
77.58140564,-81.10307000,-55.64232000
77.62908936,-84.99218000,-55.51196000
77.67677307,-78.27305000,-63.77032000
77.72445679,-82.28237000,-64.97322000
77.77214050,-82.61916000,-59.94159000
77.81982422,-78.54372000,-52.35543000
77.86750793,-83.70937000,-50.04942000
77.91519165,-82.22038000,-54.63714000
77.96287537,-79.00201000,-73.74324000
78.01055908,-83.09758000,-62.64371000
78.05824280,-82.12190000,-56.78376000
78.10592651,-78.21223000,-72.37331000
78.15361023,-85.85661000,-56.59312000
78.20129395,-80.27742000,-60.32804000
78.24897766,-79.28020000,-53.46756000
78.29666138,-85.09518000,-49.37369000
78.34434509,-80.84241000,-54.62558000
78.39202881,-79.12639000,-51.67076000
78.43971252,-85.95787000,-51.06933000
78.48739624,-79.80624000,-58.65194000
78.53507996,-79.08256000,-70.73393000
78.58276367,-87.23359000,-57.87661000
78.63044739,-79.11416000,-52.62224000
78.67813110,-80.50369000,-53.35247000
78.72581482,-85.08324000,-58.64082000
78.77349854,-79.71891000,-60.47584000
78.82118225,-79.87920000,-52.81391000
78.86886597,-86.83936000,-50.00303000
78.91654968,-78.47227000,-48.29674000
78.96423340,-80.99350000,-52.23125000
79.01191711,-84.22099000,-56.23267000
79.05960083,-78.79775000,-54.26944000
79.10728455,-81.99601000,-52.77386000
79.15496826,-83.93302000,-55.92035000
79.20265198,-78.90925000,-67.62134000
79.25033569,-81.58028000,-50.64164000
79.29801941,-83.70071000,-46.71725000
79.34570313,-78.08870000,-49.29453000
79.39338684,-83.94927000,-57.86261000
79.44107056,-81.56993000,-70.60395000
79.48875427,-79.06372000,-58.89729000
79.53643799,-83.58392000,-60.97883000
79.58412170,-82.21954000,-53.31824000
79.63180542,-78.59315000,-49.31382000
79.67948914,-84.55933000,-51.63811000
79.72717285,-80.73265000,-51.57912000
79.77485657,-78.61514000,-51.35701000
79.82254028,-86.55803000,-57.59246000
79.87022400,-80.05599000,-57.46677000
79.91790771,-79.70361000,-59.11377000
79.96559143,-85.04979000,-59.61588000
80.01327515,-80.46669000,-60.08995000
80.06095886,-78.98264000,-52.71457000
80.10864258,-87.62127000,-50.33401000
80.15632629,-78.96440000,-53.55575000
80.20401001,-80.04266000,-54.46913000
80.25169373,-85.54360000,-52.71973000
80.29937744,-79.34334000,-49.88391000
80.34706116,-80.62608000,-50.63301000
80.39474487,-85.50274000,-56.07238000
80.44242859,-79.09287000,-63.63840000
80.49011230,-80.31780000,-56.63512000
80.53779602,-85.53624000,-56.60269000
80.58547974,-78.25186000,-53.61647000
80.63316345,-82.29782000,-54.32666000
80.68084717,-83.10641000,-54.56377000
80.72853088,-79.12056000,-52.66625000
80.77621460,-81.93760000,-52.32420000
80.82389832,-83.95471000,-54.63257000
80.87158203,-78.35309000,-63.23960000
80.91926575,-82.90549000,-56.24534000
80.96694946,-81.99013000,-59.24078000
81.01463318,-78.43874000,-57.05501000
81.06231689,-84.78539000,-58.90376000
81.11000061,-81.33152000,-53.28732000
81.15768433,-79.20535000,-50.18905000
81.20536804,-83.86266000,-51.72036000
81.25305176,-81.54128000,-49.02087000
81.30073547,-78.39990000,-48.24337000
81.34841919,-86.62631000,-58.68284000
81.39610291,-79.76414000,-52.16704000
81.44378662,-79.40900000,-48.80708000
81.49147034,-85.72010000,-54.05061000
81.53915405,-80.20033000,-65.21273000
81.58683777,-79.60754000,-61.42831000
81.63452148,-86.05984000,-60.42182000
81.68220520,-79.56200000,-61.49865000
81.72988892,-79.37488000,-52.72293000
81.77757263,-87.09978000,-54.17686000
81.82525635,-78.70719000,-59.06401000
81.87294006,-81.01128000,-63.10726000
81.92062378,-84.56790000,-60.32502000
81.96830750,-79.45190000,-76.88985000
82.01599121,-80.53059000,-55.79987000
82.06367493,-85.88547000,-57.87955000
82.11135864,-78.39809000,-63.08966000
82.15904236,-81.47095000,-54.10193000
82.20672607,-83.53842000,-52.13255000
82.25440979,-78.54618000,-55.98972000
82.30209351,-82.92708000,-57.86646000
82.34977722,-82.91478000,-55.55886000
82.39746094,-78.98905000,-55.57941000
82.44514465,-82.30424000,-55.91928000
82.49282837,-82.97333000,-53.83810000
82.54051208,-78.11446000,-50.23098000
82.58819580,-84.77940000,-49.55235000
82.63587952,-80.88456000,-55.82579000
82.68356323,-79.06863000,-61.16145000
82.73124695,-84.55788000,-49.38380000
82.77893066,-81.39745000,-47.44091000
82.82661438,-78.91394000,-53.79876000
82.87429810,-85.16768000,-53.16558000
82.92198181,-80.33554000,-48.97591000
82.96966553,-78.74687000,-50.23876000
83.01734924,-87.27703000,-66.15135000
83.06503296,-79.46906000,-60.35285000
83.11271667,-80.07222000,-60.13445000
83.16040039,-85.22505000,-63.29086000
83.20808411,-80.07094000,-62.18494000
83.25576782,-79.44978000,-60.71242000
83.30345154,-87.31979000,-62.66838000
83.35113525,-78.73045000,-61.30142000
83.39881897,-80.36675000,-64.41692000
83.44650269,-85.12059000,-66.96326000
83.49418640,-78.94048000,-57.29980000
83.54187012,-81.36984000,-51.26980000
83.58955383,-84.60588000,-47.71149000
83.63723755,-79.04706000,-47.31388000
83.68492126,-80.88768000,-48.00646000
83.73260498,-84.74326000,-52.45850000
83.78028870,-78.11694000,-56.77224000
83.82797241,-82.99999000,-58.42904000
83.87565613,-82.30446000,-51.22178000
83.92333984,-79.00632000,-49.85522000
83.97102356,-82.87521000,-51.60015000
84.01870728,-82.95628000,-51.52607000
84.06639099,-78.52130000,-50.67001000
84.11407471,-83.57716000,-53.02562000
84.16175842,-81.43636000,-58.80895000
84.20944214,-78.41750000,-60.32491000
84.25712585,-85.85565000,-68.93712000
84.30480957,-80.55591000,-70.00297000
84.35249329,-79.44691000,-52.62688000
84.40017700,-84.56084000,-55.10573000
84.44786072,-81.00303000,-57.18673000
84.49554443,-78.69332000,-53.63416000
84.54322815,-87.15153000,-56.77655000
84.59091187,-79.36166000,-55.42202000
84.63859558,-79.59031000,-51.26974000
84.68627930,-86.00406000,-50.52093000
84.73396301,-79.63560000,-53.43142000
84.78164673,-80.17331000,-63.79424000
84.82933044,-85.77231000,-49.55581000
84.87701416,-79.38344000,-47.25950000
84.92469788,-79.77120000,-50.90160000
84.97238159,-86.58299000,-55.99947000
85.02006531,-78.40741000,-61.29664000
85.06774902,-81.55927000,-58.12399000
85.11543274,-83.86365000,-57.50481000
85.16311646,-79.21785000,-59.47714000
85.21080017,-81.29967000,-54.90003000
85.25848389,-84.81927000,-50.91612000
85.30616760,-78.41576000,-54.18686000
85.35385132,-82.02402000,-60.54686000
85.40153503,-82.86612000,-64.36689000
85.44921875,-78.37526000,-51.77374000
85.49690247,-83.93053000,-50.61294000
85.54458618,-81.96992000,-59.72916000
85.59226990,-79.10986000,-59.85363000
85.63995361,-83.09871000,-68.54211000
85.68763733,-82.28174000,-58.03986000
85.73532104,-78.24306000,-54.96364000
85.78300476,-85.58287000,-57.10464000
85.83068848,-80.30791000,-60.09483000
85.87837219,-79.11828000,-59.73951000
85.92605591,-85.44770000,-56.04002000
85.97373962,-80.65576000,-53.35304000
86.02142334,-79.31673000,-49.08196000
86.06910706,-85.58987000,-46.47190000
86.11679077,-80.01321000,-47.98702000
86.16447449,-78.97538000,-53.73718000
86.21215820,-87.58236000,-59.27365000
86.25984192,-78.99542000,-50.06737000
86.30752563,-80.47701000,-50.91636000
86.35520935,-85.04593000,-65.39395000
86.40289307,-79.71078000,-54.00419000
86.45057678,-80.03058000,-52.13164000
86.49826050,-86.60263000,-54.60233000
86.54594421,-78.59433000,-60.07854000
86.59362793,-80.76376000,-55.41653000
86.64131165,-84.51241000,-53.32965000
86.68899536,-78.61787000,-52.75098000
86.73667908,-82.19632000,-55.15240000
86.78436279,-83.62408000,-46.46118000
86.83204651,-79.04774000,-44.29516000
86.87973022,-81.56558000,-48.42939000
86.92741394,-83.92460000,-60.32656000
86.97509766,-78.08481000,-52.00309000
87.02278137,-83.73738000,-54.39505000
87.07046509,-81.57336000,-55.55897000
87.11814880,-78.93147000,-55.87582000
87.16583252,-83.88650000,-59.60155000
87.21351624,-82.02802000,-60.69357000
87.26119995,-78.77174000,-55.29229000
87.30888367,-84.25819000,-51.58913000
87.35656738,-80.95992000,-53.89240000
87.40425110,-78.48695000,-52.27036000
87.45193481,-86.81473000,-53.22736000
87.49961853,-79.89770000,-59.07823000
87.54730225,-79.72231000,-64.30190000
87.59498596,-85.07103000,-60.00557000
87.64266968,-80.50488000,-55.97662000
87.69035339,-79.09426000,-60.78211000
87.73803711,-87.29015000,-73.43472000
87.78572083,-79.06417000,-62.90464000
87.83340454,-79.83540000,-53.24652000
87.88108826,-85.90112000,-50.22034000
87.92877197,-79.15354000,-52.63984000
87.97645569,-80.81859000,-55.58082000
88.02413940,-85.14143000,-52.03907000
88.07182312,-79.25925000,-47.74854000
88.11950684,-80.27757000,-50.29565000
88.16719055,-85.82424000,-58.62875000
88.21487427,-78.21328000,-47.97306000
88.26255798,-82.14926000,-48.57430000
88.31024170,-83.09208000,-53.18058000
88.35792542,-79.02061000,-57.87771000
88.40560913,-82.18248000,-49.38646000
88.45329285,-83.74574000,-50.87700000
88.50097656,-78.51859000,-57.00735000
88.54866028,-82.65092000,-58.18604000
88.59634399,-82.24372000,-53.85496000
88.64402771,-78.29121000,-52.22559000
88.69171143,-84.97511000,-56.34636000
88.73939514,-81.12799000,-63.29212000
88.78707886,-79.26506000,-58.72950000
88.83476257,-83.91238000,-51.61950000
88.88244629,-81.63118000,-50.63884000
88.93013000,-78.47510000,-55.06444000
88.97781372,-86.28170000,-62.99366000
89.02549744,-79.84033000,-64.19983000
89.07318115,-79.22276000,-52.79915000
89.12086487,-86.11295000,-52.27996000
89.16854858,-80.00103000,-53.58193000
89.21623230,-79.79587000,-59.63302000
89.26391602,-85.70248000,-52.69447000
89.31159973,-79.75465000,-58.05918000
89.35928345,-79.30757000,-72.09554000
89.40696716,-87.40878000,-61.74685000
89.45465088,-78.63284000,-58.34400000
89.50233459,-80.91918000,-57.24794000
89.55001831,-84.56448000,-59.83303000
89.59770203,-79.38771000,-61.95773000
89.64538574,-80.72636000,-59.72974000
89.69306946,-85.62659000,-49.91358000
89.74075317,-78.54871000,-50.10600000
89.78843689,-81.24287000,-55.95387000
89.83612061,-83.83285000,-57.45893000
89.88380432,-78.38095000,-53.26183000
89.93148804,-83.09571000,-50.74869000
89.97917175,-82.65852000,-63.73823000
90.02685547,-79.08627000,-50.98435000
90.07453918,-82.34216000,-56.03598000
90.12222290,-83.12119000,-52.49026000
90.16990662,-78.15489000,-49.80995000
90.21759033,-84.49416000,-54.49630000
90.26527405,-80.93752000,-64.27303000
90.31295776,-78.90449000,-61.43860000
90.36064148,-84.91187000,-56.02496000
90.40832520,-81.18645000,-56.77680000
90.45600891,-79.09793000,-59.42320000
90.50369263,-84.87240000,-57.80056000
90.55137634,-80.55478000,-54.57459000
90.59906006,-78.65352000,-46.96457000
90.64674377,-87.50896000,-47.70267000
90.69442749,-79.35657000,-50.78209000
90.74211121,-80.03047000,-50.59780000
90.78979492,-85.27413000,-50.30861000
90.83747864,-80.04673000,-54.56203000
90.88516235,-79.60416000,-66.00599000
90.93284607,-86.97013000,-57.43864000
90.98052979,-78.86433000,-49.68062000
91.02821350,-80.15559000,-49.29388000
91.07589722,-85.47805000,-51.87393000
91.12358093,-78.75879000,-55.80895000
91.17126465,-81.53740000,-55.35645000
91.21894836,-84.29575000,-48.86679000
91.26663208,-79.17912000,-49.01432000
91.31431580,-80.89742000,-51.90458000
91.36199951,-84.95169000,-54.99577000
91.40968323,-78.12305000,-60.12602000
91.45736694,-82.78314000,-56.71239000
91.50505066,-82.33954000,-59.17089000
91.55273438,-78.86674000,-57.69985000
91.60041809,-83.16600000,-55.40961000
91.64810181,-82.72519000,-59.92966000
91.69578552,-78.69933000,-57.54841000
91.74346924,-83.33488000,-49.22342000
91.79115295,-81.68590000,-50.01263000
91.83883667,-78.29967000,-56.40430000
91.88652039,-86.00261000,-51.54560000
91.93420410,-80.40121000,-53.45883000
91.98188782,-79.45102000,-61.55496000
92.02957153,-84.65565000,-51.57425000
92.07725525,-81.02378000,-45.68165000
92.12493896,-78.81098000,-48.03005000
92.17262268,-86.75462000,-52.95456000
92.22030640,-79.47729000,-49.70966000
92.26799011,-79.39304000,-48.44286000
92.31567383,-86.41941000,-49.87189000
92.36335754,-79.43782000,-59.73347000
92.41104126,-80.34524000,-54.87097000
92.45872498,-85.44160000,-53.20343000
92.50640869,-79.54861000,-71.73452000
92.55409241,-79.74954000,-57.91172000
92.60177612,-86.82877000,-56.06265000
92.64945984,-78.37860000,-56.53008000
92.69714355,-81.40296000,-60.49585000
92.74482727,-83.89957000,-57.86750000
92.79251099,-79.10625000,-51.67079000
92.84019470,-81.53633000,-51.03645000
92.88787842,-84.54635000,-51.18522000
92.93556213,-78.58566000,-53.85023000
92.98324585,-81.80878000,-57.06486000
93.03092957,-83.15593000,-51.35368000
93.07861328,-78.23449000,-50.99151000
93.12629700,-84.05160000,-51.45965000
93.17398071,-81.76743000,-49.27593000
93.22166443,-79.15658000,-51.36093000
93.26934814,-83.19144000,-54.85577000
93.31703186,-82.35290000,-57.17590000
93.36471558,-78.32642000,-55.02107000
93.41239929,-85.23289000,-50.12824000
93.46008301,-80.40494000,-48.05958000
93.50776672,-78.93522000,-51.17535000
93.55545044,-85.84733000,-60.37508000
93.60313416,-80.44033000,-47.71168000
93.65081787,-79.49297000,-46.13276000
93.69850159,-85.30529000,-51.64753000
93.74618530,-80.21126000,-61.26456000
93.79386902,-78.92316000,-56.37904000
93.84155273,-87.77962000,-53.65477000
93.88923645,-78.93002000,-60.35776000
93.93692017,-80.37396000,-54.86747000
93.98460388,-85.12101000,-53.74437000
94.03228760,-79.63123000,-61.03252000
94.07997131,-80.22386000,-61.90453000
94.12765503,-86.25119000,-52.54462000
94.17533875,-78.75388000,-54.70709000
94.22302246,-80.56121000,-64.07549000
94.27070618,-84.86083000,-53.09492000
94.31838989,-78.45528000,-54.40106000
94.36607361,-82.32258000,-54.01291000
94.41375732,-83.37042000,-53.26188000
94.46144104,-79.13469000,-53.54757000
94.50912476,-81.62936000,-59.90841000
94.55680847,-84.04948000,-66.89002000
94.60449219,-78.13478000,-62.30066000
94.65217590,-83.45898000,-53.04229000
94.69985962,-81.65480000,-54.42835000
94.74754333,-78.76468000,-66.77090000
94.79522705,-84.22000000,-51.02966000
94.84291077,-81.78915000,-48.25253000
94.89059448,-78.95026000,-49.56190000
94.93827820,-84.03352000,-55.72744000
94.98596191,-81.19308000,-59.02141000
95.03364563,-78.40584000,-54.14925000
95.08132935,-86.91240000,-50.89875000
95.12901306,-79.79279000,-50.90878000
95.17669678,-79.66768000,-51.14639000
95.22438049,-85.20362000,-49.48441000
95.27206421,-80.46200000,-51.70018000
95.31974792,-79.25085000,-53.15518000
95.36743164,-86.86649000,-49.77286000
95.41511536,-79.21150000,-52.75231000
95.46279907,-79.64017000,-51.15679000
95.51048279,-86.31857000,-50.90523000
95.55816650,-78.96946000,-57.29691000
95.60585022,-80.95860000,-65.97387000
95.65353394,-84.85272000,-65.21590000
95.70121765,-79.38495000,-61.54301000
95.74890137,-80.30605000,-66.21887000
95.79658508,-85.99130000,-58.15706000
95.84426880,-78.22966000,-56.03213000
95.89195251,-81.93440000,-50.98270000
95.93963623,-83.16971000,-50.12533000
95.98731995,-78.87321000,-56.69283000
96.03500366,-82.45520000,-56.01143000
96.08268738,-83.46886000,-60.67398000
96.13037109,-78.69675000,-55.36018000
96.17805481,-82.45757000,-49.44623000
96.22573853,-82.51878000,-50.41497000
96.27342224,-78.18279000,-52.80161000
96.32110596,-85.03464000,-59.11846000
96.36878967,-80.97945000,-49.86594000
96.41647339,-79.25581000,-45.69568000
96.46415710,-84.05946000,-48.42769000
96.51184082,-81.62981000,-58.46638000
96.55952454,-78.59839000,-62.50828000
96.60720825,-85.87978000,-60.08103000
96.65489197,-79.97452000,-63.19685000
96.70257568,-79.03410000,-55.10638000
96.75025940,-86.54629000,-53.46535000
96.79794312,-79.79433000,-54.90346000
96.84562683,-79.94987000,-51.99216000
96.89331055,-85.43571000,-52.32993000
96.94099426,-79.91874000,-50.01686000
96.98867798,-79.30132000,-57.21829000
97.03636169,-87.55669000,-84.73438000
97.08404541,-78.61447000,-53.41693000
97.13172913,-80.75873000,-49.48979000
97.17941284,-84.66762000,-52.14587000
97.22709656,-79.26347000,-60.49698000
97.27478027,-80.95306000,-64.31921000
97.32246399,-85.28384000,-65.67670000
97.37014771,-78.72383000,-55.29238000
97.41783142,-81.05998000,-49.63348000
97.46551514,-84.16355000,-53.39796000
97.51319885,-78.24633000,-50.46526000
97.56088257,-83.16472000,-50.10546000
97.60856628,-82.46285000,-59.79011000
