Frequency,Channel B
(kHz),(dBu)

0.00000000,-26.56452000
0.04768372,-33.66568000
0.09536743,-46.76406000
0.14305115,-48.69117000
0.19073486,-49.55542000
0.23841858,-54.79754000
0.28610229,-51.98017000
0.33378601,-46.87217000
0.38146973,-53.40900000
0.42915344,-51.75308000
0.47683716,-46.90860000
0.52452087,-47.12708000
0.57220459,-49.59702000
0.61988831,-50.19646000
0.66757202,-51.48592000
0.71525574,-55.94084000
0.76293945,-58.08340000
0.81062317,-60.81420000
0.85830688,-59.23470000
0.90599060,-58.49225000
0.95367432,-55.06677000
1.00135803,-56.56990000
1.04904175,-60.52759000
1.09672546,-55.83858000
1.14440918,-58.96331000
1.19209290,-52.79232000
1.23977661,-54.25986000
1.28746033,-59.68766000
1.33514404,-56.16753000
1.38282776,-55.69297000
1.43051147,-53.93069000
1.47819519,-59.84458000
1.52587891,-81.97424000
1.57356262,-63.74441000
1.62124634,-60.94793000
1.66893005,-56.19815000
1.71661377,-52.87916000
1.76429749,-56.60499000
1.81198120,-53.40107000
1.85966492,-56.22811000
1.90734863,-50.58669000
1.95503235,-48.28122000
2.00271606,-56.58026000
2.05039978,-58.74870000
2.09808350,-55.44313000
2.14576721,-54.46590000
2.19345093,-69.83540000
2.24113464,-64.27368000
2.28881836,-59.25705000
2.33650208,-55.14677000
2.38418579,-57.15118000
2.43186951,-63.63711000
2.47955322,-59.76929000
2.52723694,-54.48628000
2.57492065,-55.07881000
2.62260437,-57.62848000
2.67028809,-56.29260000
2.71797180,-62.31844000
2.76565552,-54.70237000
2.81333923,-63.35810000
2.86102295,-58.85250000
2.90870667,-55.59391000
2.95639038,-56.50229000
3.00407410,-65.18163000
3.05175781,-62.61351000
3.09944153,-55.72739000
3.14712524,-74.23225000
3.19480896,-67.53182000
3.24249268,-52.80186000
3.29017639,-56.87498000
3.33786011,-58.34131000
3.38554382,-55.67474000
3.43322754,-60.36307000
3.48091125,-53.58580000
3.52859497,-53.34220000
3.57627869,-54.55988000
3.62396240,-54.40450000
3.67164612,-59.66297000
3.71932983,-51.85511000
3.76701355,-57.38525000
3.81469727,-53.33043000
3.86238098,-50.83774000
3.91006470,-65.78141000
3.95774841,-54.63932000
4.00543213,-50.98269000
4.05311584,-57.32031000
4.10079956,-49.16718000
4.14848328,-51.13132000
4.19616699,-54.70176000
4.24385071,-53.06153000
4.29153442,-53.64023000
4.33921814,-52.98260000
4.38690186,-53.01989000
4.43458557,-53.48212000
4.48226929,-57.69040000
4.52995300,-49.58891000
4.57763672,-53.22192000
4.62532043,-62.10939000
4.67300415,-50.14655000
4.72068787,-47.82516000
4.76837158,-54.39776000
4.81605530,-48.26160000
4.86373901,-48.84652000
4.91142273,-53.40626000
4.95910645,-51.30639000
5.00679016,-48.16189000
5.05447388,-48.91405000
5.10215759,-46.67796000
5.14984131,-49.23734000
5.19752502,-48.50115000
5.24520874,-46.08657000
5.29289246,-46.94658000
5.34057617,-46.65417000
5.38825989,-43.28941000
5.43594360,-50.57674000
5.48362732,-42.00646000
5.53131104,-42.41618000
5.57899475,-45.01952000
5.62667847,-42.09793000
5.67436218,-40.75491000
5.72204590,-41.47453000
5.76972961,-40.48604000
5.81741333,-37.31515000
5.86509705,-37.98176000
5.91278076,-37.37916000
5.96046448,-34.38234000
6.00814819,-33.04836000
6.05583191,-31.88097000
6.10351563,-27.80236000
6.15119934,-22.79530000
6.19888306,-12.70221000
6.24656677,-5.29210600
6.29425049,-2.92495800
6.34193420,-6.13253600
6.38961792,-14.14355000
6.43730164,-23.93428000
6.48498535,-27.43998000
6.53266907,-31.12551000
6.58035278,-31.44270000
6.62803650,-33.44192000
6.67572021,-35.31118000
6.72340393,-35.19093000
6.77108765,-35.07117000
6.81877136,-38.85371000
6.86645508,-37.39002000
6.91413879,-37.58546000
6.96182251,-37.84122000
7.00950623,-40.56529000
7.05718994,-38.09467000
7.10487366,-39.21974000
7.15255737,-41.81897000
7.20024109,-39.07150000
7.24792480,-41.00540000
7.29560852,-41.24640000
7.34329224,-40.91042000
7.39097595,-40.52909000
7.43865967,-42.20860000
7.48634338,-41.01596000
7.53402710,-41.72010000
7.58171082,-42.42852000
7.62939453,-39.82878000
7.67707825,-43.72314000
7.72476196,-40.55912000
7.77244568,-42.26866000
7.82012939,-42.13216000
7.86781311,-40.83403000
7.91549683,-43.93935000
7.96318054,-39.86041000
8.01086426,-43.38554000
8.05854797,-40.20860000
8.10623169,-42.07853000
8.15391541,-43.51701000
8.20159912,-40.03557000
8.24928284,-39.76371000
8.29696655,-40.73281000
8.34465027,-41.40670000
8.39233398,-40.11200000
8.44001770,-40.32950000
8.48770142,-40.60118000
8.53538513,-39.13918000
8.58306885,-39.02799000
8.63075256,-39.00352000
8.67843628,-37.93586000
8.72612000,-38.60092000
8.77380371,-37.55837000
8.82148743,-35.85313000
8.86917114,-35.16428000
8.91685486,-34.79709000
8.96453857,-34.11253000
9.01222229,-32.70096000
9.05990601,-31.35379000
9.10758972,-28.52003000
9.15527344,-26.88895000
9.20295715,-23.66150000
9.25064087,-21.13038000
9.29832458,-19.25370000
9.34600830,-18.89710000
9.39369202,-20.50695000
9.44137573,-23.48032000
9.48905945,-26.08850000
9.53674316,-29.43466000
9.58442688,-31.86997000
9.63211060,-33.22707000
9.67979431,-35.60400000
9.72747803,-36.52636000
9.77516174,-38.59718000
9.82284546,-39.47761000
9.87052917,-38.17812000
9.91821289,-42.34312000
9.96589661,-41.32856000
10.01358032,-42.21320000
10.06126404,-44.08599000
10.10894775,-44.23928000
10.15663147,-42.64278000
10.20431519,-43.68839000
10.25199890,-48.04789000
10.29968262,-45.56523000
10.34736633,-45.96562000
10.39505005,-48.59352000
10.44273376,-49.51222000
10.49041748,-46.61209000
10.53810120,-49.29494000
10.58578491,-46.26602000
10.63346863,-50.20796000
10.68115234,-49.42877000
10.72883606,-50.54761000
10.77651978,-49.78001000
10.82420349,-49.99977000
10.87188721,-52.86275000
10.91957092,-46.78923000
10.96725464,-54.78998000
11.01493835,-47.16501000
11.06262207,-51.32389000
11.11030579,-49.83116000
11.15798950,-46.14678000
11.20567322,-56.25457000
11.25335693,-53.44052000
11.30104065,-53.69022000
11.34872437,-48.67085000
11.39640808,-62.51252000
11.44409180,-55.72782000
11.49177551,-52.61777000
11.53945923,-45.39561000
11.58714294,-50.91640000
11.63482666,-47.23022000
11.68251038,-50.40592000
11.73019409,-55.35713000
11.77787781,-54.60642000
11.82556152,-57.58324000
11.87324524,-51.07864000
11.92092896,-54.43032000
11.96861267,-45.74934000
12.01629639,-48.28932000
12.06398010,-52.26910000
12.11166382,-47.92875000
12.15934753,-60.12035000
12.20703125,-54.43687000
12.25471497,-51.98546000
12.30239868,-47.17664000
12.35008240,-51.65492000
12.39776611,-55.82401000
12.44544983,-54.89900000
12.49313354,-46.98454000
12.54081726,-47.35211000
12.58850098,-51.16955000
12.63618469,-51.48643000
12.68386841,-57.57397000
12.73155212,-58.56991000
12.77923584,-58.21080000
12.82691956,-58.33479000
12.87460327,-55.55618000
12.92228699,-56.05296000
12.96997070,-47.17858000
13.01765442,-49.00597000
13.06533813,-46.91548000
13.11302185,-46.97787000
13.16070557,-60.16690000
13.20838928,-59.15754000
13.25607300,-56.32210000
13.30375671,-68.78294000
13.35144043,-56.81432000
13.39912415,-49.72854000
13.44680786,-48.97659000
13.49449158,-50.69323000
13.54217529,-48.52560000
13.58985901,-48.95912000
13.63754272,-57.78696000
13.68522644,-59.64346000
13.73291016,-54.08397000
13.78059387,-59.99038000
13.82827759,-63.13682000
13.87596130,-69.41854000
13.92364502,-55.76340000
13.97132874,-51.14004000
14.01901245,-53.19643000
14.06669617,-57.60082000
14.11437988,-56.98470000
14.16206360,-56.12617000
14.20974731,-55.30420000
14.25743103,-52.42816000
14.30511475,-54.06589000
14.35279846,-58.39148000
14.40048218,-62.99776000
14.44816589,-56.82332000
14.49584961,-57.04258000
14.54353333,-55.26711000
14.59121704,-57.39791000
14.63890076,-70.47015000
14.68658447,-77.08495000
14.73426819,-53.25038000
14.78195190,-51.89903000
14.82963562,-54.39166000
14.87731934,-56.54934000
14.92500305,-69.41633000
14.97268677,-64.32928000
15.02037048,-72.42896000
15.06805420,-66.15108000
15.11573792,-70.66192000
15.16342163,-58.25243000
15.21110535,-59.09538000
15.25878906,-63.67302000
15.30647278,-61.87737000
15.35415649,-53.01388000
15.40184021,-57.79984000
15.44952393,-62.82606000
15.49720764,-54.87551000
15.54489136,-62.39611000
15.59257507,-57.52592000
15.64025879,-55.17128000
15.68794250,-60.91306000
15.73562622,-58.43275000
15.78330994,-56.62241000
15.83099365,-68.34107000
15.87867737,-74.39358000
15.92636108,-61.48284000
15.97404480,-61.73114000
16.02172852,-59.50106000
16.06941223,-58.01526000
16.11709595,-63.09048000
16.16477966,-59.56937000
16.21246338,-63.44846000
16.26014709,-58.75238000
16.30783081,-56.29536000
16.35551453,-55.05487000
16.40319824,-55.21630000
16.45088196,-61.21828000
16.49856567,-56.48485000
16.54624939,-61.93422000
16.59393311,-60.90208000
16.64161682,-55.01266000
16.68930054,-52.24122000
16.73698425,-54.08675000
16.78466797,-52.33115000
16.83235168,-54.29586000
16.88003540,-67.67557000
16.92771912,-61.41379000
16.97540283,-65.03761000
17.02308655,-61.16144000
17.07077026,-61.71343000
17.11845398,-56.95462000
17.16613770,-54.24443000
17.21382141,-57.07207000
17.26150513,-62.74832000
17.30918884,-55.13050000
17.35687256,-57.15241000
17.40455627,-62.55352000
17.45223999,-59.88464000
17.49992371,-62.61880000
17.54760742,-56.16365000
17.59529114,-54.89940000
17.64297485,-57.27448000
17.69065857,-61.48189000
17.73834229,-55.47833000
17.78602600,-59.69250000
17.83370972,-62.12140000
17.88139343,-58.70071000
17.92907715,-57.75959000
17.97676086,-52.94321000
18.02444458,-58.60448000
18.07212830,-56.08391000
18.11981201,-56.44411000
18.16749573,-67.98500000
18.21517944,-59.18193000
18.26286316,-64.23084000
18.31054688,-59.44367000
18.35823059,-52.41696000
18.40591431,-49.62236000
18.45359802,-52.58631000
18.50128174,-54.47467000
18.54896545,-53.17302000
18.59664917,-50.10617000
18.64433289,-46.61476000
18.69201660,-45.62056000
18.73970032,-47.25035000
18.78738403,-52.04192000
18.83506775,-69.24811000
18.88275146,-49.25483000
18.93043518,-47.32249000
18.97811890,-47.96427000
19.02580261,-53.44066000
19.07348633,-51.51284000
19.12117004,-49.68375000
19.16885376,-49.69704000
19.21653748,-52.43290000
19.26422119,-53.82544000
19.31190491,-56.63604000
19.35958862,-55.09254000
19.40727234,-57.23417000
19.45495605,-73.18137000
19.50263977,-61.49630000
19.55032349,-56.29171000
19.59800720,-52.16628000
19.64569092,-51.98496000
19.69337463,-52.17243000
19.74105835,-57.85179000
19.78874207,-65.77489000
19.83642578,-62.44049000
19.88410950,-59.52478000
19.93179321,-58.78022000
19.97947693,-58.85601000
20.02716064,-65.54604000
20.07484436,-65.08023000
20.12252808,-74.55836000
20.17021179,-59.18243000
20.21789551,-58.55699000
20.26557922,-70.82786000
20.31326294,-57.39592000
20.36094666,-52.58488000
20.40863037,-56.86093000
20.45631409,-62.18951000
20.50399780,-57.34455000
20.55168152,-55.48273000
20.59936523,-54.05636000
20.64704895,-55.18565000
20.69473267,-67.35728000
20.74241638,-57.04353000
20.79010010,-55.78871000
20.83778381,-56.81691000
20.88546753,-50.47993000
20.93315125,-52.41203000
20.98083496,-58.22878000
21.02851868,-69.42097000
21.07620239,-71.63669000
21.12388611,-60.40074000
21.17156982,-61.27565000
21.21925354,-64.07057000
21.26693726,-60.72508000
21.31462097,-59.09779000
21.36230469,-86.81116000
21.40998840,-60.96916000
21.45767212,-59.96972000
21.50535583,-60.10853000
21.55303955,-57.79696000
21.60072327,-59.22849000
21.64840698,-59.57493000
21.69609070,-56.07674000
21.74377441,-65.71210000
21.79145813,-57.97584000
21.83914185,-55.91534000
21.88682556,-62.26944000
21.93450928,-67.87180000
21.98219299,-53.79715000
22.02987671,-53.06252000
22.07756042,-61.48610000
22.12524414,-59.46045000
22.17292786,-57.03434000
22.22061157,-56.14551000
22.26829529,-58.54892000
22.31597900,-55.35681000
22.36366272,-62.85330000
22.41134644,-63.20476000
22.45903015,-76.72039000
22.50671387,-66.42508000
22.55439758,-64.56326000
22.60208130,-53.74244000
22.64976501,-53.56224000
22.69744873,-56.30499000
22.74513245,-52.45104000
22.79281616,-62.41563000
22.84049988,-60.58308000
22.88818359,-66.71427000
22.93586731,-54.65847000
22.98355103,-50.67170000
23.03123474,-55.50838000
23.07891846,-63.02291000
23.12660217,-75.58084000
23.17428589,-58.42990000
23.22196960,-53.40887000
23.26965332,-57.86220000
23.31733704,-62.30241000
23.36502075,-60.38528000
23.41270447,-68.13468000
23.46038818,-59.17487000
23.50807190,-57.57853000
23.55575562,-55.64884000
23.60343933,-57.22021000
23.65112305,-59.83680000
23.69880676,-65.02682000
23.74649048,-61.19324000
23.79417419,-55.50221000
23.84185791,-58.05041000
23.88954163,-61.30831000
23.93722534,-58.92337000
23.98490906,-56.29678000
24.03259277,-55.11191000
24.08027649,-56.19006000
24.12796021,-60.84835000
24.17564392,-62.72322000
24.22332764,-66.96557000
24.27101135,-72.65467000
24.31869507,-63.51888000
24.36637878,-55.49715000
24.41406250,-56.79585000
24.46174622,-64.81812000
24.50942993,-62.88760000
24.55711365,-53.55211000
24.60479736,-48.48884000
24.65248108,-47.40814000
24.70016479,-49.28816000
24.74784851,-51.47932000
24.79553223,-52.85634000
24.84321594,-57.33690000
24.89089966,-56.65194000
24.93858337,-51.07692000
24.98626709,-47.82860000
25.03395081,-49.65094000
25.08163452,-51.72569000
25.12931824,-49.54739000
25.17700195,-48.26659000
25.22468567,-48.90850000
25.27236938,-50.41214000
25.32005310,-57.26947000
25.36773682,-61.46042000
25.41542053,-60.34444000
25.46310425,-61.37419000
25.51078796,-70.33362000
25.55847168,-58.04895000
25.60615540,-52.56715000
25.65383911,-52.44436000
25.70152283,-51.34091000
25.74920654,-50.55456000
25.79689026,-51.50721000
25.84457397,-54.67948000
25.89225769,-57.19106000
25.93994141,-63.05890000
25.98762512,-65.13721000
26.03530884,-73.43757000
26.08299255,-62.77714000
26.13067627,-58.88120000
26.17835999,-58.77685000
26.22604370,-57.27332000
26.27372742,-53.16643000
26.32141113,-52.57623000
26.36909485,-57.59877000
26.41677856,-59.87893000
26.46446228,-53.72857000
26.51214600,-54.84333000
26.55982971,-60.97954000
26.60751343,-71.57184000
26.65519714,-76.01272000
26.70288086,-63.47622000
26.75056458,-68.16659000
26.79824829,-59.90661000
26.84593201,-66.98904000
26.89361572,-61.28045000
26.94129944,-62.35786000
26.98898315,-65.01144000
27.03666687,-59.20952000
27.08435059,-58.51355000
27.13203430,-59.40945000
27.17971802,-65.23531000
27.22740173,-59.57518000
27.27508545,-55.68365000
27.32276917,-76.78766000
27.37045288,-56.97765000
27.41813660,-53.26700000
27.46582031,-51.65161000
27.51350403,-51.59098000
27.56118774,-51.47319000
27.60887146,-51.15826000
27.65655518,-52.14412000
27.70423889,-58.33756000
27.75192261,-68.42966000
27.79960632,-60.34115000
27.84729004,-57.31760000
27.89497375,-52.95800000
27.94265747,-53.48328000
27.99034119,-62.68033000
28.03802490,-62.12242000
28.08570862,-68.31275000
28.13339233,-83.53206000
28.18107605,-60.18496000
28.22875977,-62.43115000
28.27644348,-58.60500000
28.32412720,-53.62031000
28.37181091,-64.99231000
28.41949463,-57.62860000
28.46717834,-68.44405000
28.51486206,-58.48157000
28.56254578,-54.45701000
28.61022949,-55.04106000
28.65791321,-68.47810000
28.70559692,-67.31049000
28.75328064,-70.91615000
28.80096436,-70.90250000
28.84864807,-66.61258000
28.89633179,-62.72055000
28.94401550,-56.66617000
28.99169922,-54.09701000
29.03938293,-56.26514000
29.08706665,-56.28342000
29.13475037,-58.17007000
29.18243408,-66.81786000
29.23011780,-55.46177000
29.27780151,-53.77620000
29.32548523,-50.40249000
29.37316895,-51.14162000
29.42085266,-59.08844000
29.46853638,-58.55541000
29.51622009,-59.04457000
29.56390381,-51.80523000
29.61158752,-48.68876000
29.65927124,-50.46528000
29.70695496,-54.92296000
29.75463867,-57.72952000
29.80232239,-56.14054000
29.85000610,-55.11803000
29.89768982,-57.08203000
29.94537354,-62.49305000
29.99305725,-58.33489000
30.04074097,-56.00416000
30.08842468,-59.08201000
30.13610840,-56.33224000
30.18379211,-58.79404000
30.23147583,-58.56504000
30.27915955,-61.21182000
30.32684326,-60.17395000
30.37452698,-55.15966000
30.42221069,-56.74258000
30.46989441,-62.15868000
30.51757813,-56.83376000
30.56526184,-55.38636000
30.61294556,-54.56266000
30.66062927,-52.27221000
30.70831299,-53.22056000
30.75599670,-59.74620000
30.80368042,-73.19750000
30.85136414,-56.62668000
30.89904785,-56.19322000
30.94673157,-57.86458000
30.99441528,-49.77144000
31.04209900,-47.38236000
31.08978271,-48.42033000
31.13746643,-54.87617000
31.18515015,-53.76822000
31.23283386,-49.87589000
31.28051758,-53.86675000
31.32820129,-52.96663000
31.37588501,-50.28277000
31.42356873,-52.75449000
31.47125244,-50.31369000
31.51893616,-49.54353000
31.56661987,-49.02676000
31.61430359,-48.74396000
31.66198730,-50.13071000
31.70967102,-56.36312000
31.75735474,-63.29312000
31.80503845,-55.93787000
31.85272217,-53.91584000
31.90040588,-51.71608000
31.94808960,-50.94997000
31.99577332,-51.56417000
32.04345703,-54.60723000
32.09114075,-52.71790000
32.13882446,-49.29001000
32.18650818,-48.88522000
32.23419189,-49.64308000
32.28187561,-49.63652000
32.32955933,-51.72714000
32.37724304,-56.45056000
32.42492676,-64.38345000
32.47261047,-67.86195000
32.52029419,-69.48274000
32.56797791,-63.92574000
32.61566162,-58.31785000
32.66334534,-64.22601000
32.71102905,-61.84681000
32.75871277,-58.58055000
32.80639648,-53.33149000
32.85408020,-54.89761000
32.90176392,-58.32821000
32.94944763,-53.62092000
32.99713135,-55.47285000
33.04481506,-60.61035000
33.09249878,-55.62903000
33.14018250,-56.22150000
33.18786621,-58.04456000
33.23554993,-62.05643000
33.28323364,-58.34975000
33.33091736,-56.88884000
33.37860107,-60.53673000
33.42628479,-59.48048000
33.47396851,-61.75378000
33.52165222,-73.15706000
33.56933594,-62.04810000
33.61701965,-57.30964000
33.66470337,-57.49513000
33.71238708,-70.62174000
33.76007080,-59.59391000
33.80775452,-63.74674000
33.85543823,-67.17809000
33.90312195,-64.23802000
33.95080566,-59.53783000
33.99848938,-53.20625000
34.04617310,-51.19643000
34.09385681,-53.54571000
34.14154053,-53.13801000
34.18922424,-52.47666000
34.23690796,-51.71270000
34.28459167,-54.90040000
34.33227539,-62.06741000
34.37995911,-54.34401000
34.42764282,-55.89295000
34.47532654,-76.23846000
34.52301025,-58.37700000
34.57069397,-59.62801000
34.61837769,-66.70455000
34.66606140,-56.76379000
34.71374512,-54.34227000
34.76142883,-53.80366000
34.80911255,-52.88719000
34.85679626,-51.34912000
34.90447998,-55.86995000
34.95216370,-62.37077000
34.99984741,-59.87846000
35.04753113,-60.38959000
35.09521484,-59.34722000
35.14289856,-56.76254000
35.19058228,-53.12458000
35.23826599,-54.31738000
35.28594971,-60.17348000
35.33363342,-61.63161000
35.38131714,-65.02343000
35.42900085,-67.33962000
35.47668457,-58.20950000
35.52436829,-54.87163000
35.57205200,-60.92825000
35.61973572,-54.11628000
35.66741943,-49.98083000
35.71510315,-51.95779000
35.76278687,-54.51956000
35.81047058,-55.04594000
35.85815430,-61.03466000
35.90583801,-64.25017000
35.95352173,-65.27377000
36.00120544,-64.58816000
36.04888916,-62.52623000
36.09657288,-62.29057000
36.14425659,-59.12238000
36.19194031,-61.01850000
36.23962402,-70.66518000
36.28730774,-62.34446000
36.33499146,-62.87447000
36.38267517,-65.24444000
36.43035889,-81.67812000
36.47804260,-84.96726000
36.52572632,-70.49284000
36.57341003,-63.36618000
36.62109375,-54.48134000
36.66877747,-51.24626000
36.71646118,-55.44286000
36.76414490,-63.46655000
36.81182861,-66.17525000
36.85951233,-60.63263000
36.90719604,-52.74223000
36.95487976,-55.52163000
37.00256348,-53.68642000
37.05024719,-49.71749000
37.09793091,-51.22945000
37.14561462,-55.24898000
37.19329834,-54.54817000
37.24098206,-51.62407000
37.28866577,-53.81800000
37.33634949,-67.90474000
37.38403320,-53.83257000
37.43171692,-54.94619000
37.47940063,-60.39108000
37.52708435,-65.24174000
37.57476807,-56.39971000
37.62245178,-51.10609000
37.67013550,-47.95492000
37.71781921,-48.40002000
37.76550293,-50.97034000
37.81318665,-52.42566000
37.86087036,-54.65335000
37.90855408,-57.74804000
37.95623779,-63.13631000
38.00392151,-60.17754000
38.05160522,-61.64586000
38.09928894,-65.10208000
38.14697266,-61.08367000
38.19465637,-54.02884000
38.24234009,-49.47701000
38.29002380,-48.44658000
38.33770752,-51.96387000
38.38539124,-55.60742000
38.43307495,-51.57213000
38.48075867,-49.08607000
38.52844238,-51.99561000
38.57612610,-58.31042000
38.62380981,-60.37035000
38.67149353,-71.14329000
38.71917725,-57.96528000
38.76686096,-56.39022000
38.81454468,-50.68422000
38.86222839,-49.35512000
38.90991211,-52.83955000
38.95759583,-59.62011000
39.00527954,-55.47859000
39.05296326,-58.42843000
39.10064697,-66.82481000
39.14833069,-53.84937000
39.19601440,-52.69775000
39.24369812,-59.32799000
39.29138184,-60.71949000
39.33906555,-54.67956000
39.38674927,-55.77013000
39.43443298,-55.92470000
39.48211670,-55.84554000
39.52980042,-59.52435000
39.57748413,-56.68594000
39.62516785,-51.23718000
39.67285156,-49.98606000
39.72053528,-54.29965000
39.76821899,-58.37756000
39.81590271,-59.78989000
39.86358643,-74.32446000
39.91127014,-60.15373000
39.95895386,-64.98660000
40.00663757,-64.87914000
40.05432129,-58.44001000
40.10200500,-55.06105000
40.14968872,-54.02142000
40.19737244,-57.23152000
40.24505615,-60.49070000
40.29273987,-64.90957000
40.34042358,-63.20427000
40.38810730,-88.86008000
40.43579102,-56.05954000
40.48347473,-59.44673000
40.53115845,-56.36626000
40.57884216,-58.93316000
40.62652588,-63.84262000
40.67420959,-61.80479000
40.72189331,-57.33604000
40.76957703,-59.23666000
40.81726074,-54.08031000
40.86494446,-54.20765000
40.91262817,-53.72207000
40.96031189,-56.64725000
41.00799561,-67.81457000
41.05567932,-72.10455000
41.10336304,-71.11099000
41.15104675,-57.23125000
41.19873047,-55.14894000
41.24641418,-62.97572000
41.29409790,-65.98929000
41.34178162,-60.04570000
41.38946533,-64.79123000
41.43714905,-63.07403000
41.48483276,-64.10554000
41.53251648,-59.34993000
41.58020020,-54.85870000
41.62788391,-57.17149000
41.67556763,-55.22270000
41.72325134,-57.62885000
41.77093506,-58.74970000
41.81861877,-52.33696000
41.86630249,-48.98128000
41.91398621,-49.45376000
41.96166992,-55.42450000
42.00935364,-64.89288000
42.05703735,-65.67445000
42.10472107,-64.37075000
42.15240479,-58.96538000
42.20008850,-54.71325000
42.24777222,-61.47704000
42.29545593,-71.08887000
42.34313965,-73.12109000
42.39082336,-58.28945000
42.43850708,-54.19286000
42.48619080,-56.56322000
42.53387451,-55.22034000
42.58155823,-55.95766000
42.62924194,-61.09562000
42.67692566,-62.79899000
42.72460938,-58.68810000
42.77229309,-55.97965000
42.81997681,-57.60245000
42.86766052,-56.27408000
42.91534424,-56.73709000
42.96302795,-64.53688000
43.01071167,-64.38098000
43.05839539,-55.21986000
43.10607910,-52.76247000
43.15376282,-54.06916000
43.20144653,-55.97073000
43.24913025,-55.46520000
43.29681396,-57.39861000
43.34449768,-64.26364000
43.39218140,-59.26711000
43.43986511,-75.02000000
43.48754883,-58.62685000
43.53523254,-52.58512000
43.58291626,-51.80505000
43.63059998,-49.68808000
43.67828369,-49.46666000
43.72596741,-52.87643000
43.77365112,-54.37779000
43.82133484,-48.07141000
43.86901855,-47.72673000
43.91670227,-50.00113000
43.96438599,-51.82354000
44.01206970,-54.84706000
44.05975342,-58.96259000
44.10743713,-52.33946000
44.15512085,-49.59483000
44.20280457,-49.67697000
44.25048828,-51.73334000
44.29817200,-55.06308000
44.34585571,-60.27431000
44.39353943,-78.33914000
44.44122314,-63.04669000
44.48890686,-57.69210000
44.53659058,-53.55968000
44.58427429,-51.78091000
44.63195801,-59.31284000
44.67964172,-62.48770000
44.72732544,-53.00426000
44.77500916,-47.94378000
44.82269287,-48.05483000
44.87037659,-51.98472000
44.91806030,-61.64657000
44.96574402,-75.87141000
45.01342773,-64.58078000
45.06111145,-59.11913000
45.10879517,-58.11351000
45.15647888,-59.03319000
45.20416260,-55.53547000
45.25184631,-53.45061000
45.29953003,-54.09660000
45.34721375,-54.23367000
45.39489746,-50.29541000
45.44258118,-49.85039000
45.49026489,-53.51765000
45.53794861,-57.68020000
45.58563232,-57.55101000
45.63331604,-53.41748000
45.68099976,-52.08210000
45.72868347,-53.24127000
45.77636719,-57.27310000
45.82405090,-64.46867000
45.87173462,-57.22348000
45.91941833,-52.25980000
45.96710205,-52.50809000
46.01478577,-56.41893000
46.06246948,-61.94235000
46.11015320,-75.57629000
46.15783691,-58.58573000
46.20552063,-57.60738000
46.25320435,-58.14342000
46.30088806,-61.14388000
46.34857178,-66.27158000
46.39625549,-66.05286000
46.44393921,-74.76891000
46.49162292,-73.39777000
46.53930664,-60.29936000
46.58699036,-56.27321000
46.63467407,-57.29090000
46.68235779,-69.80247000
46.73004150,-68.45580000
46.77772522,-61.89037000
46.82540894,-58.34201000
46.87309265,-63.32222000
46.92077637,-54.95769000
46.96846008,-52.06371000
47.01614380,-57.64517000
47.06382751,-60.34461000
47.11151123,-54.95292000
47.15919495,-55.52382000
47.20687866,-61.73172000
47.25456238,-59.79018000
47.30224609,-61.59045000
47.34992981,-59.78763000
47.39761353,-53.32913000
47.44529724,-52.28221000
47.49298096,-54.90429000
47.54066467,-56.83798000
47.58834839,-54.07497000
47.63603210,-55.43337000
47.68371582,-63.11931000
47.73139954,-50.77367000
47.77908325,-50.69630000
47.82676697,-52.80920000
47.87445068,-58.98948000
47.92213440,-63.43481000
47.96981812,-60.83078000
48.01750183,-55.21500000
48.06518555,-55.89085000
48.11286926,-61.15018000
48.16055298,-65.54514000
48.20823669,-59.23997000
48.25592041,-62.47961000
48.30360413,-55.55478000
48.35128784,-55.06702000
48.39897156,-63.37730000
48.44665527,-56.35646000
48.49433899,-61.59740000
48.54202271,-57.75011000
48.58970642,-60.56795000
48.63739014,-65.90199000
48.68507385,-60.09423000
48.73275757,-54.82465000
48.78044128,-57.42044000
48.82812500,-64.11178000
48.87580872,-57.01237000
48.92349243,-55.49832000
48.97117615,-58.80718000
49.01885986,-90.92509000
49.06654358,-61.00354000
49.11422729,-51.12730000
49.16191101,-50.78218000
49.20959473,-53.55327000
49.25727844,-64.25085000
49.30496216,-57.65463000
49.35264587,-50.94952000
49.40032959,-49.39247000
49.44801331,-52.95171000
49.49569702,-59.13461000
49.54338074,-60.53705000
49.59106445,-70.71832000
49.63874817,-67.04224000
49.68643188,-60.11074000
49.73411560,-53.88171000
49.78179932,-53.21687000
49.82948303,-56.69350000
49.87716675,-55.36362000
49.92485046,-59.32550000
49.97253418,-64.80333000
50.02021790,-65.47736000
50.06790161,-58.29690000
50.11558533,-93.15298000
50.16326904,-55.81142000
50.21095276,-51.65222000
50.25863647,-50.18555000
50.30632019,-54.16973000
50.35400391,-59.49022000
50.40168762,-54.25166000
50.44937134,-50.93867000
50.49705505,-54.78738000
50.54473877,-64.99036000
50.59242249,-63.80849000
50.64010620,-62.90188000
50.68778992,-55.32434000
50.73547363,-48.08756000
50.78315735,-46.20387000
50.83084106,-47.63973000
50.87852478,-48.98708000
50.92620850,-51.38772000
50.97389221,-61.13194000
51.02157593,-62.43037000
51.06925964,-58.94185000
51.11694336,-54.20158000
51.16462708,-50.69392000
51.21231079,-57.57840000
51.25999451,-60.55998000
51.30767822,-58.34867000
51.35536194,-57.58283000
51.40304565,-56.11551000
51.45072937,-58.00208000
51.49841309,-54.82967000
51.54609680,-53.55153000
51.59378052,-59.19991000
51.64146423,-67.54961000
51.68914795,-55.45763000
51.73683167,-50.18117000
51.78451538,-52.78339000
51.83219910,-59.97947000
51.87988281,-65.87798000
51.92756653,-56.54565000
51.97525024,-60.34230000
52.02293396,-63.90038000
52.07061768,-58.76308000
52.11830139,-57.51606000
52.16598511,-55.83722000
52.21366882,-54.52886000
52.26135254,-57.25384000
52.30903625,-69.24611000
52.35671997,-62.58300000
52.40440369,-59.23564000
52.45208740,-57.23698000
52.49977112,-53.27539000
52.54745483,-52.86394000
52.59513855,-52.83092000
52.64282227,-53.61593000
52.69050598,-56.37373000
52.73818970,-60.88249000
52.78587341,-68.88602000
52.83355713,-66.18306000
52.88124084,-54.48777000
52.92892456,-51.34969000
52.97660828,-54.02271000
53.02429199,-61.53446000
53.07197571,-55.30260000
53.11965942,-54.24896000
53.16734314,-63.06242000
53.21502686,-84.41525000
53.26271057,-67.26154000
53.31039429,-53.13200000
53.35807800,-49.04009000
53.40576172,-50.44475000
53.45344543,-53.95766000
53.50112915,-54.69098000
53.54881287,-58.66930000
53.59649658,-62.25311000
53.64418030,-54.67272000
53.69186401,-56.45751000
53.73954773,-59.93739000
53.78723145,-61.37707000
53.83491516,-65.74442000
53.88259888,-63.11712000
53.93028259,-56.09744000
53.97796631,-54.15385000
54.02565002,-54.26633000
54.07333374,-56.06248000
54.12101746,-58.32850000
54.16870117,-56.95512000
54.21638489,-58.60710000
54.26406860,-61.97297000
54.31175232,-56.69855000
54.35943604,-56.44039000
54.40711975,-55.90808000
54.45480347,-57.50558000
54.50248718,-61.28292000
54.55017090,-77.09433000
54.59785461,-56.63072000
54.64553833,-58.19552000
54.69322205,-61.03402000
54.74090576,-65.90323000
54.78858948,-57.12327000
54.83627319,-55.61730000
54.88395691,-54.31240000
54.93164063,-55.23380000
54.97932434,-52.81345000
55.02700806,-54.79023000
55.07469177,-54.94413000
55.12237549,-55.79345000
55.17005920,-70.00314000
55.21774292,-57.11757000
55.26542664,-52.95831000
55.31311035,-52.21958000
55.36079407,-55.89883000
55.40847778,-61.92220000
55.45616150,-55.03313000
55.50384521,-53.92673000
55.55152893,-61.79132000
55.59921265,-59.62871000
55.64689636,-54.18292000
55.69458008,-59.55568000
55.74226379,-58.69463000
55.78994751,-60.32937000
55.83763123,-57.00842000
55.88531494,-56.37873000
55.93299866,-56.74584000
55.98068237,-59.89581000
56.02836609,-60.28772000
56.07604980,-56.02234000
56.12373352,-51.98795000
56.17141724,-49.76497000
56.21910095,-49.04682000
56.26678467,-52.24204000
56.31446838,-54.76992000
56.36215210,-59.70190000
56.40983582,-55.37434000
56.45751953,-54.32594000
56.50520325,-56.14868000
56.55288696,-56.97147000
56.60057068,-55.19848000
56.64825439,-54.74615000
56.69593811,-60.04606000
56.74362183,-72.33463000
56.79130554,-52.08906000
56.83898926,-49.46245000
56.88667297,-54.07257000
56.93435669,-57.00011000
56.98204041,-64.04538000
57.02972412,-56.51781000
57.07740784,-52.51758000
57.12509155,-57.27655000
57.17277527,-76.13377000
57.22045898,-66.25430000
57.26814270,-58.34624000
57.31582642,-51.32689000
57.36351013,-52.65318000
57.41119385,-53.37254000
57.45887756,-52.12632000
57.50656128,-49.90794000
57.55424500,-52.85082000
57.60192871,-62.57944000
57.64961243,-57.68639000
57.69729614,-62.13208000
57.74497986,-64.94803000
57.79266357,-69.24851000
57.84034729,-63.68601000
57.88803101,-62.60928000
57.93571472,-58.68930000
57.98339844,-54.56855000
58.03108215,-61.30732000
58.07876587,-68.06420000
58.12644958,-69.30034000
58.17413330,-60.14783000
58.22181702,-59.20406000
58.26950073,-63.52375000
58.31718445,-60.58923000
58.36486816,-68.23772000
58.41255188,-59.76103000
58.46023560,-59.79611000
58.50791931,-57.48281000
58.55560303,-61.03333000
58.60328674,-65.78770000
58.65097046,-60.47265000
58.69865417,-56.89323000
58.74633789,-54.81946000
58.79402161,-51.07832000
58.84170532,-54.12356000
58.88938904,-65.48267000
58.93707275,-66.77145000
58.98475647,-58.63006000
59.03244019,-53.55613000
59.08012390,-52.42781000
59.12780762,-55.81825000
59.17549133,-63.39024000
59.22317505,-69.93178000
59.27085876,-59.76863000
59.31854248,-59.91663000
59.36622620,-51.74759000
59.41390991,-53.61505000
59.46159363,-62.32566000
59.50927734,-52.79996000
59.55696106,-52.88768000
59.60464478,-67.13074000
59.65232849,-61.18859000
59.70001221,-52.44154000
59.74769592,-51.31548000
59.79537964,-58.55738000
59.84306335,-65.39964000
59.89074707,-65.57703000
59.93843079,-63.85012000
59.98611450,-62.90654000
60.03379822,-62.73003000
60.08148193,-57.70874000
60.12916565,-54.80848000
60.17684937,-55.38630000
60.22453308,-55.39530000
60.27221680,-54.57383000
60.31990051,-61.42424000
60.36758423,-58.79268000
60.41526794,-57.90426000
60.46295166,-57.22211000
60.51063538,-63.99384000
60.55831909,-65.33372000
60.60600281,-90.67049000
60.65368652,-57.62983000
60.70137024,-56.09612000
60.74905396,-62.15387000
60.79673767,-58.76305000
60.84442139,-54.46649000
60.89210510,-53.04657000
60.93978882,-55.30588000
60.98747253,-55.77635000
61.03515625,-66.74116000
61.08283997,-59.24519000
61.13052368,-58.55073000
61.17820740,-59.29520000
61.22589111,-50.85333000
61.27357483,-54.23067000
61.32125854,-59.60556000
61.36894226,-55.19764000
61.41662598,-55.21190000
61.46430969,-56.94746000
61.51199341,-59.57348000
61.55967712,-58.45278000
61.60736084,-59.59557000
61.65504456,-58.94783000
61.70272827,-58.60110000
61.75041199,-50.63916000
61.79809570,-48.77813000
61.84577942,-52.92982000
61.89346313,-60.02323000
61.94114685,-63.37184000
61.98883057,-70.58867000
62.03651428,-55.02472000
62.08419800,-53.35453000
62.13188171,-56.86158000
62.17956543,-55.09838000
62.22724915,-57.61561000
62.27493286,-51.65702000
62.32261658,-53.06902000
62.37030029,-51.08150000
62.41798401,-50.68949000
62.46566772,-54.86374000
62.51335144,-56.33979000
62.56103516,-60.92982000
62.60871887,-57.17807000
62.65640259,-54.74899000
62.70408630,-62.21470000
62.75177002,-54.05379000
62.79945374,-50.80227000
62.84713745,-52.94247000
62.89482117,-53.45882000
62.94250488,-52.53298000
62.99018860,-55.89020000
63.03787231,-58.91635000
63.08555603,-52.64629000
63.13323975,-50.66518000
63.18092346,-54.44044000
63.22860718,-58.07135000
63.27629089,-57.45325000
63.32397461,-61.42153000
63.37165833,-64.73664000
63.41934204,-54.13177000
63.46702576,-49.94358000
63.51470947,-50.11433000
63.56239319,-51.55775000
63.61007690,-55.15289000
63.65776062,-57.56115000
63.70544434,-58.24608000
63.75312805,-63.42652000
63.80081177,-63.97400000
63.84849548,-62.50146000
63.89617920,-66.94948000
63.94386292,-54.93099000
63.99154663,-54.80432000
64.03923035,-54.74683000
64.08691406,-50.58170000
64.13459778,-49.41099000
64.18228149,-53.41778000
64.22996521,-54.75514000
64.27764893,-53.74322000
64.32533264,-53.60651000
64.37301636,-57.01542000
64.42070007,-66.79478000
64.46838379,-69.18494000
64.51606750,-58.03888000
64.56375122,-55.17943000
64.61143494,-57.52866000
64.65911865,-58.65551000
64.70680237,-51.94335000
64.75448608,-51.02862000
64.80216980,-51.78936000
64.84985352,-50.38427000
64.89753723,-50.47827000
64.94522095,-55.30745000
64.99290466,-57.05447000
65.04058838,-68.44534000
65.08827209,-58.69778000
65.13595581,-62.27478000
65.18363953,-57.02061000
65.23132324,-55.17358000
65.27900696,-53.93756000
65.32669067,-56.53905000
65.37437439,-62.14249000
65.42205811,-55.12947000
65.46974182,-56.64681000
65.51742554,-62.07314000
65.56510925,-59.45031000
65.61279297,-57.21554000
65.66047668,-54.03423000
65.70816040,-57.47084000
65.75584412,-58.65864000
65.80352783,-52.76605000
65.85121155,-54.63762000
65.89889526,-65.61553000
65.94657898,-65.36698000
65.99426270,-58.16501000
66.04194641,-54.25679000
66.08963013,-53.78102000
66.13731384,-70.11102000
66.18499756,-61.19628000
66.23268127,-62.79295000
66.28036499,-54.19780000
66.32804871,-53.27956000
66.37573242,-53.41303000
66.42341614,-58.43585000
66.47109985,-59.44489000
66.51878357,-63.43224000
66.56646729,-65.52825000
66.61415100,-74.92048000
66.66183472,-56.76963000
66.70951843,-51.24741000
66.75720215,-56.77809000
66.80488586,-66.21070000
66.85256958,-59.10262000
66.90025330,-60.13159000
66.94793701,-56.92323000
66.99562073,-59.97390000
67.04330444,-67.15308000
67.09098816,-68.88830000
67.13867188,-59.34169000
67.18635559,-60.49440000
67.23403931,-59.78246000
67.28172302,-51.68692000
67.32940674,-52.11331000
67.37709045,-52.54126000
67.42477417,-57.76506000
67.47245789,-60.40896000
67.52014160,-53.74380000
67.56782532,-56.15553000
67.61550903,-56.43140000
67.66319275,-56.10922000
67.71087646,-54.95196000
67.75856018,-58.33700000
67.80624390,-71.01866000
67.85392761,-69.23455000
67.90161133,-61.06223000
67.94929504,-65.50451000
67.99697876,-57.24679000
68.04466248,-54.21273000
68.09234619,-61.41021000
68.14002991,-58.32338000
68.18771362,-56.15924000
68.23539734,-60.44896000
68.28308105,-55.56219000
68.33076477,-53.37023000
68.37844849,-53.52304000
68.42613220,-50.99854000
68.47381592,-49.47411000
68.52149963,-51.45538000
68.56918335,-57.33390000
68.61686707,-57.55140000
68.66455078,-59.03986000
68.71223450,-60.99133000
68.75991821,-65.44537000
68.80760193,-69.72049000
68.85528564,-66.72929000
68.90296936,-52.29304000
68.95065308,-49.18268000
68.99833679,-49.05741000
69.04602051,-50.75332000
69.09370422,-54.59603000
69.14138794,-62.40031000
69.18907166,-57.93980000
69.23675537,-49.50417000
69.28443909,-47.56687000
69.33212280,-49.78028000
69.37980652,-53.97839000
69.42749023,-53.07663000
69.47517395,-50.95543000
69.52285767,-51.96204000
69.57054138,-53.67129000
69.61822510,-54.89613000
69.66590881,-56.65227000
69.71359253,-59.54770000
69.76127625,-56.53745000
69.80895996,-56.12364000
69.85664368,-58.36775000
69.90432739,-57.49704000
69.95201111,-64.85555000
69.99969482,-63.12529000
70.04737854,-60.36614000
70.09506226,-63.11825000
70.14274597,-56.93403000
70.19042969,-58.29059000
70.23811340,-58.08609000
70.28579712,-54.82990000
70.33348083,-57.42451000
70.38116455,-70.81496000
70.42884827,-60.28901000
70.47653198,-54.15697000
70.52421570,-57.53471000
70.57189941,-62.57891000
70.61958313,-54.91066000
70.66726685,-55.89371000
70.71495056,-56.83992000
70.76263428,-56.49734000
70.81031799,-55.59000000
70.85800171,-56.70685000
70.90568542,-58.02411000
70.95336914,-58.34961000
71.00105286,-58.47644000
71.04873657,-57.07368000
71.09642029,-54.83716000
71.14410400,-61.31765000
71.19178772,-62.03106000
71.23947144,-58.58608000
71.28715515,-53.37238000
71.33483887,-49.42506000
71.38252258,-52.32650000
71.43020630,-56.75526000
71.47789001,-58.37027000
71.52557373,-68.32359000
71.57325745,-61.48935000
71.62094116,-65.14462000
71.66862488,-55.53699000
71.71630859,-51.45010000
71.76399231,-51.28578000
71.81167603,-56.89262000
71.85935974,-60.15221000
71.90704346,-58.48354000
71.95472717,-62.97482000
72.00241089,-59.87949000
72.05009460,-61.86779000
72.09777832,-59.69496000
72.14546204,-54.08107000
72.19314575,-56.04763000
72.24082947,-65.19012000
72.28851318,-57.98100000
72.33619690,-52.76814000
72.38388062,-53.80511000
72.43156433,-55.70758000
72.47924805,-57.69177000
72.52693176,-69.70441000
72.57461548,-60.48077000
72.62229919,-55.34477000
72.66998291,-50.27696000
72.71766663,-50.23995000
72.76535034,-55.77868000
72.81303406,-60.27962000
72.86071777,-59.61861000
72.90840149,-63.65719000
72.95608521,-62.03494000
73.00376892,-58.27103000
73.05145264,-54.24976000
73.09913635,-53.48957000
73.14682007,-55.60593000
73.19450378,-63.59722000
73.24218750,-58.68804000
73.28987122,-54.93637000
73.33755493,-58.68256000
73.38523865,-59.09224000
73.43292236,-58.86976000
73.48060608,-60.35767000
73.52828979,-60.25097000
73.57597351,-58.72875000
73.62365723,-55.80543000
73.67134094,-60.80026000
73.71902466,-55.11760000
73.76670837,-58.00972000
73.81439209,-65.05654000
73.86207581,-58.44862000
73.90975952,-52.44167000
73.95744324,-53.42455000
74.00512695,-52.06163000
74.05281067,-49.32986000
74.10049438,-50.51562000
74.14817810,-55.07022000
74.19586182,-65.50258000
74.24354553,-52.43282000
74.29122925,-53.56980000
74.33891296,-62.08765000
74.38659668,-61.29667000
74.43428040,-66.40324000
74.48196411,-63.88016000
74.52964783,-62.46373000
74.57733154,-71.61839000
74.62501526,-61.58920000
74.67269897,-56.69271000
74.72038269,-54.05692000
74.76806641,-50.49836000
74.81575012,-50.60877000
74.86343384,-55.17253000
74.91111755,-62.92481000
74.95880127,-65.63363000
75.00648499,-58.18259000
75.05416870,-53.65996000
75.10185242,-51.90916000
75.14953613,-54.09673000
75.19721985,-58.34367000
75.24490356,-59.26994000
75.29258728,-61.38829000
75.34027100,-56.02377000
75.38795471,-58.49643000
75.43563843,-67.24013000
75.48332214,-63.30568000
75.53100586,-53.78233000
75.57868958,-51.31108000
75.62637329,-52.00070000
75.67405701,-54.52661000
75.72174072,-52.52479000
75.76942444,-55.64222000
75.81710815,-58.30420000
75.86479187,-54.46575000
75.91247559,-51.43020000
75.96015930,-51.50723000
76.00784302,-54.38261000
76.05552673,-60.68777000
76.10321045,-67.13477000
76.15089417,-60.55932000
76.19857788,-63.97361000
76.24626160,-60.13038000
76.29394531,-57.14926000
76.34162903,-53.24128000
76.38931274,-55.05851000
76.43699646,-55.46827000
76.48468018,-55.99826000
76.53236389,-56.86180000
76.58004761,-54.13615000
76.62773132,-52.88785000
76.67541504,-55.83626000
76.72309875,-52.61415000
76.77078247,-51.37411000
76.81846619,-52.18153000
76.86614990,-52.91914000
76.91383362,-54.03003000
76.96151733,-55.72748000
77.00920105,-58.85231000
77.05688477,-57.28356000
77.10456848,-55.33427000
77.15225220,-56.56733000
77.19993591,-70.05611000
77.24761963,-60.41553000
77.29530334,-57.05537000
77.34298706,-51.96769000
77.39067078,-51.41833000
77.43835449,-55.06535000
77.48603821,-49.80712000
77.53372192,-50.06773000
77.58140564,-55.68053000
77.62908936,-60.45959000
77.67677307,-49.70636000
77.72445679,-51.36436000
77.77214050,-55.96090000
77.81982422,-53.76787000
77.86750793,-54.88193000
77.91519165,-57.17389000
77.96287537,-70.12115000
78.01055908,-59.19067000
78.05824280,-63.93344000
78.10592651,-65.43114000
78.15361023,-69.40913000
78.20129395,-68.44720000
78.24897766,-68.29584000
78.29666138,-67.16850000
78.34434509,-68.21374000
78.39202881,-64.45770000
78.43971252,-54.50625000
78.48739624,-56.47406000
78.53507996,-64.74864000
78.58276367,-61.05423000
78.63044739,-53.57569000
78.67813110,-54.23404000
78.72581482,-58.41184000
78.77349854,-59.75643000
78.82118225,-72.06693000
78.86886597,-72.45025000
78.91654968,-64.48332000
78.96423340,-58.26606000
79.01191711,-62.34060000
79.05960083,-59.55846000
79.10728455,-55.03908000
79.15496826,-58.63886000
79.20265198,-65.73349000
79.25033569,-67.04202000
79.29801941,-66.15316000
79.34570313,-54.99469000
79.39338684,-53.65249000
79.44107056,-58.31851000
79.48875427,-60.73509000
79.53643799,-60.64822000
79.58412170,-52.74390000
79.63180542,-50.85275000
79.67948914,-52.04538000
79.72717285,-55.53204000
79.77485657,-63.68650000
79.82254028,-57.33288000
79.87022400,-52.80439000
79.91790771,-55.03874000
79.96559143,-58.48721000
80.01327515,-54.69129000
80.06095886,-50.35775000
80.10864258,-52.74007000
80.15632629,-59.21535000
80.20401001,-57.37296000
80.25169373,-58.35386000
80.29937744,-60.98295000
80.34706116,-62.73179000
80.39474487,-54.99418000
80.44242859,-58.29094000
80.49011230,-61.30219000
80.53779602,-62.79339000
80.58547974,-53.78215000
80.63316345,-49.49129000
80.68084717,-53.00938000
80.72853088,-51.99789000
80.77621460,-50.03020000
80.82389832,-52.74437000
80.87158203,-56.73262000
80.91926575,-68.09814000
80.96694946,-53.00023000
81.01463318,-49.63825000
81.06231689,-51.24660000
81.11000061,-51.52139000
81.15768433,-53.43652000
81.20536804,-58.03724000
81.25305176,-54.52968000
81.30073547,-52.53296000
81.34841919,-49.30449000
81.39610291,-48.29967000
81.44378662,-52.08327000
81.49147034,-55.74257000
81.53915405,-55.61116000
81.58683777,-56.71730000
81.63452148,-53.60998000
81.68220520,-52.72025000
81.72988892,-58.35434000
81.77757263,-63.99464000
81.82525635,-63.74519000
81.87294006,-55.21685000
81.92062378,-52.56784000
81.96830750,-53.53569000
82.01599121,-55.10843000
82.06367493,-69.05634000
82.11135864,-69.19211000
82.15904236,-60.03125000
82.20672607,-57.45747000
82.25440979,-54.08783000
82.30209351,-53.12025000
82.34977722,-62.30554000
82.39746094,-63.94638000
82.44514465,-68.83405000
82.49282837,-56.64118000
82.54051208,-53.28403000
82.58819580,-53.42498000
82.63587952,-54.21748000
82.68356323,-66.72723000
82.73124695,-59.79374000
82.77893066,-60.54332000
82.82661438,-58.88918000
82.87429810,-54.43402000
82.92198181,-52.21489000
82.96966553,-53.05421000
83.01734924,-56.40144000
83.06503296,-58.41583000
83.11271667,-54.66569000
83.16040039,-56.85180000
83.20808411,-70.69557000
83.25576782,-59.38407000
83.30345154,-59.49696000
83.35113525,-59.49807000
83.39881897,-65.21493000
83.44650269,-57.14658000
83.49418640,-54.69215000
83.54187012,-57.64485000
83.58955383,-57.35712000
83.63723755,-52.88305000
83.68492126,-51.89106000
83.73260498,-53.58536000
83.78028870,-52.97760000
83.82797241,-64.36557000
83.87565613,-60.41842000
83.92333984,-58.43349000
83.97102356,-62.86153000
84.01870728,-75.49397000
84.06639099,-69.33720000
84.11407471,-68.07487000
84.16175842,-60.80757000
84.20944214,-53.92137000
84.25712585,-52.39527000
84.30480957,-52.73352000
84.35249329,-54.17892000
84.40017700,-59.58988000
84.44786072,-61.92078000
84.49554443,-71.08714000
84.54322815,-64.07424000
84.59091187,-63.37516000
84.63859558,-54.07565000
84.68627930,-51.75812000
84.73396301,-55.03832000
84.78164673,-57.93997000
84.82933044,-59.87098000
84.87701416,-60.88250000
84.92469788,-52.30267000
84.97238159,-52.06403000
85.02006531,-53.60324000
85.06774902,-61.90898000
85.11543274,-55.28230000
85.16311646,-61.93062000
85.21080017,-57.34225000
85.25848389,-55.88101000
85.30616760,-62.04529000
85.35385132,-59.73267000
85.40153503,-57.60697000
85.44921875,-64.82539000
85.49690247,-57.35705000
85.54458618,-52.20326000
85.59226990,-59.88214000
85.63995361,-64.44582000
85.68763733,-61.35470000
85.73532104,-60.69799000
85.78300476,-73.01412000
85.83068848,-72.39720000
85.87837219,-60.90910000
85.92605591,-55.13424000
85.97373962,-55.82764000
86.02142334,-60.01240000
86.06910706,-66.44128000
86.11679077,-61.03226000
86.16447449,-59.85710000
86.21215820,-60.25931000
86.25984192,-57.92218000
86.30752563,-55.55870000
86.35520935,-56.38555000
86.40289307,-58.62595000
86.45057678,-57.46771000
86.49826050,-54.23043000
86.54594421,-55.10352000
86.59362793,-58.99831000
86.64131165,-56.09990000
86.68899536,-58.45158000
86.73667908,-65.65491000
86.78436279,-57.18322000
86.83204651,-54.80452000
86.87973022,-51.98080000
86.92741394,-54.77585000
86.97509766,-52.67814000
87.02278137,-49.30938000
87.07046509,-52.09938000
87.11814880,-57.44151000
87.16583252,-56.62433000
87.21351624,-53.43309000
87.26119995,-53.70129000
87.30888367,-59.76688000
87.35656738,-68.87306000
87.40425110,-62.21351000
87.45193481,-55.72716000
87.49961853,-55.02628000
87.54730225,-55.75008000
87.59498596,-57.33218000
87.64266968,-62.57039000
87.69035339,-60.77819000
87.73803711,-58.41312000
87.78572083,-56.92427000
87.83340454,-54.11063000
87.88108826,-53.20240000
87.92877197,-57.03242000
87.97645569,-59.21127000
88.02413940,-54.48237000
88.07182312,-50.89503000
88.11950684,-51.02081000
88.16719055,-56.63378000
88.21487427,-59.13225000
88.26255798,-51.91777000
88.31024170,-50.94364000
88.35792542,-68.18750000
88.40560913,-54.61422000
88.45329285,-57.56111000
88.50097656,-58.94624000
88.54866028,-52.92149000
88.59634399,-47.99219000
88.64402771,-47.15500000
88.69171143,-51.54243000
88.73939514,-60.61224000
88.78707886,-53.49152000
88.83476257,-57.73254000
88.88244629,-56.26941000
88.93013000,-58.46866000
88.97781372,-56.67117000
89.02549744,-52.93725000
89.07318115,-53.48570000
89.12086487,-58.00693000
89.16854858,-60.01217000
89.21623230,-59.77609000
89.26391602,-54.59296000
89.31159973,-54.98016000
89.35928345,-62.02477000
89.40696716,-61.96734000
89.45465088,-57.81968000
89.50233459,-52.17513000
89.55001831,-51.48032000
89.59770203,-57.66703000
89.64538574,-70.39844000
89.69306946,-63.71793000
89.74075317,-66.64663000
89.78843689,-58.82816000
89.83612061,-67.60209000
89.88380432,-59.23073000
89.93148804,-55.74703000
89.97917175,-54.89779000
90.02685547,-53.90666000
90.07453918,-54.15424000
90.12222290,-55.89334000
90.16990662,-60.61708000
90.21759033,-69.49021000
90.26527405,-65.02553000
90.31295776,-55.01986000
90.36064148,-52.97566000
90.40832520,-53.91349000
90.45600891,-54.24696000
90.50369263,-50.63946000
90.55137634,-49.74777000
90.59906006,-55.55782000
90.64674377,-62.86253000
90.69442749,-53.87844000
90.74211121,-52.14001000
90.78979492,-52.10544000
90.83747864,-53.10937000
90.88516235,-57.80231000
90.93284607,-54.15935000
90.98052979,-53.64238000
91.02821350,-58.19694000
91.07589722,-56.11617000
91.12358093,-60.17222000
91.17126465,-67.42687000
91.21894836,-61.56131000
91.26663208,-61.09650000
91.31431580,-61.72742000
91.36199951,-59.39494000
91.40968323,-60.85124000
91.45736694,-56.30025000
91.50505066,-53.94048000
91.55273438,-54.63913000
91.60041809,-56.88698000
91.64810181,-55.67326000
91.69578552,-56.68469000
91.74346924,-55.73205000
91.79115295,-59.37544000
91.83883667,-60.34570000
91.88652039,-55.40755000
91.93420410,-57.83120000
91.98188782,-55.31925000
92.02957153,-53.52645000
92.07725525,-55.50158000
92.12493896,-56.79198000
92.17262268,-63.02843000
92.22030640,-71.35471000
92.26799011,-56.59249000
92.31567383,-57.43902000
92.36335754,-67.22829000
92.41104126,-65.19534000
92.45872498,-57.78270000
92.50640869,-53.91439000
92.55409241,-53.73983000
92.60177612,-57.24697000
92.64945984,-58.94420000
92.69714355,-60.65081000
92.74482727,-66.52394000
92.79251099,-82.99506000
92.84019470,-56.78587000
92.88787842,-51.37391000
92.93556213,-55.43552000
92.98324585,-69.05287000
93.03092957,-56.35100000
93.07861328,-52.33244000
93.12629700,-61.11352000
93.17398071,-65.62812000
93.22166443,-66.37614000
93.26934814,-62.38312000
93.31703186,-55.47714000
93.36471558,-53.90739000
93.41239929,-55.33406000
93.46008301,-59.55577000
93.50776672,-60.43539000
93.55545044,-62.61176000
93.60313416,-61.97876000
93.65081787,-54.24757000
93.69850159,-51.09118000
93.74618530,-53.21347000
93.79386902,-55.93618000
93.84155273,-54.78893000
93.88923645,-53.56879000
93.93692017,-56.59751000
93.98460388,-63.66283000
94.03228760,-59.57033000
94.07997131,-54.88098000
94.12765503,-54.28276000
94.17533875,-58.72236000
94.22302246,-60.64540000
94.27070618,-56.73457000
94.31838989,-55.33940000
94.36607361,-54.13385000
94.41375732,-54.89435000
94.46144104,-55.80432000
94.50912476,-56.54790000
94.55680847,-56.99938000
94.60449219,-55.68777000
94.65217590,-55.05898000
94.69985962,-54.63789000
94.74754333,-54.36974000
94.79522705,-56.04002000
94.84291077,-55.56679000
94.89059448,-54.16552000
94.93827820,-55.76791000
94.98596191,-59.46234000
95.03364563,-68.37801000
95.08132935,-56.05490000
95.12901306,-55.39412000
95.17669678,-56.79877000
95.22438049,-53.25768000
95.27206421,-53.93771000
95.31974792,-57.15198000
95.36743164,-56.32358000
95.41511536,-57.13331000
95.46279907,-56.39102000
95.51048279,-61.68565000
95.55816650,-58.12044000
95.60585022,-57.36966000
95.65353394,-55.64680000
95.70121765,-51.01806000
95.74890137,-50.52239000
95.79658508,-54.76066000
95.84426880,-57.28163000
95.89195251,-55.96417000
95.93963623,-59.04580000
95.98731995,-60.04964000
96.03500366,-56.46129000
96.08268738,-55.67066000
96.13037109,-58.45900000
96.17805481,-55.27319000
96.22573853,-55.33646000
96.27342224,-54.99413000
96.32110596,-60.96866000
96.36878967,-68.70937000
96.41647339,-59.84606000
96.46415710,-54.22800000
96.51184082,-50.41445000
96.55952454,-51.74617000
96.60720825,-57.97684000
96.65489197,-65.48107000
96.70257568,-56.97955000
96.75025940,-57.42906000
96.79794312,-59.54060000
96.84562683,-68.97176000
96.89331055,-62.38797000
96.94099426,-61.08020000
96.98867798,-51.36141000
97.03636169,-50.94955000
97.08404541,-58.42771000
97.13172913,-63.51030000
97.17941284,-57.45245000
97.22709656,-60.11844000
97.27478027,-59.14108000
97.32246399,-53.01877000
97.37014771,-53.97559000
97.41783142,-69.97471000
97.46551514,-61.90166000
97.51319885,-62.30347000
97.56088257,-61.02142000
97.60856628,-64.61963000
97.65625000,-59.49558000
97.70393372,-72.29964000
97.75161743,-57.14101000
97.79930115,-59.67244000
97.84698486,-53.30048000
97.89466858,-51.40370000
97.94235229,-63.57338000
97.99003601,-57.16219000
98.03771973,-55.37666000
98.08540344,-54.53346000
98.13308716,-55.05007000
98.18077087,-67.86761000
98.22845459,-62.77441000
98.27613831,-63.54541000
98.32382202,-56.44520000
98.37150574,-57.14711000
98.41918945,-69.96824000
98.46687317,-59.84195000
98.51455688,-52.83954000
98.56224060,-53.77817000
98.60992432,-62.41860000
98.65760803,-74.54230000
98.70529175,-59.47350000
98.75297546,-55.03214000
98.80065918,-53.21038000
98.84834290,-54.25409000
98.89602661,-54.24949000
98.94371033,-50.59296000
98.99139404,-51.38020000
99.03907776,-52.77523000
99.08676147,-53.60970000
99.13444519,-58.91840000
99.18212891,-57.83434000
99.22981262,-58.19611000
99.27749634,-53.90384000
99.32518005,-52.69962000
99.37286377,-57.62497000
99.42054749,-66.35802000
99.46823120,-65.53584000
99.51591492,-54.50771000
99.56359863,-52.68360000
99.61128235,-55.41964000
99.65896606,-60.63210000
99.70664978,-63.31751000
99.75433350,-58.35334000
99.80201721,-53.96651000
99.84970093,-52.51756000
99.89738464,-53.25286000
99.94506836,-58.07952000
99.99275208,-53.60742000
100.04043579,-50.44357000
100.08811951,-49.59460000
100.13580322,-50.21349000
100.18348694,-49.88361000
100.23117065,-52.93850000
100.27885437,-53.56273000
100.32653809,-54.74591000
100.37422180,-60.17622000
100.42190552,-56.06367000
100.46958923,-53.42578000
100.51727295,-55.10014000
100.56495667,-54.04293000
100.61264038,-55.76609000
100.66032410,-60.10746000
100.70800781,-63.13717000
100.75569153,-67.73611000
100.80337524,-70.88062000
100.85105896,-68.23985000
100.89874268,-60.01505000
100.94642639,-61.36942000
100.99411011,-57.12402000
101.04179382,-56.54478000
101.08947754,-63.07893000
101.13716125,-65.00971000
101.18484497,-77.09718000
101.23252869,-67.54915000
101.28021240,-63.70201000
101.32789612,-59.03595000
101.37557983,-63.39591000
101.42326355,-75.73808000
101.47094727,-62.96645000
101.51863098,-59.57793000
101.56631470,-63.79323000
101.61399841,-53.03108000
101.66168213,-50.84255000
101.70936584,-52.91328000
101.75704956,-53.71889000
101.80473328,-54.73055000
101.85241699,-53.39994000
101.90010071,-57.96844000
101.94778442,-63.76757000
101.99546814,-62.54552000
102.04315186,-60.07229000
102.09083557,-64.56584000
102.13851929,-63.03719000
102.18620300,-56.10996000
102.23388672,-63.36830000
102.28157043,-61.40809000
102.32925415,-60.37846000
102.37693787,-73.52401000
102.42462158,-63.91720000
102.47230530,-61.82368000
102.51998901,-61.39378000
102.56767273,-56.85483000
102.61535645,-66.01390000
102.66304016,-62.01605000
102.71072388,-57.26511000
102.75840759,-55.96138000
102.80609131,-58.82259000
102.85377502,-57.65567000
102.90145874,-58.47851000
102.94914246,-75.79990000
102.99682617,-59.17362000
103.04450989,-56.20674000
103.09219360,-56.51328000
103.13987732,-62.36111000
103.18756104,-52.63601000
103.23524475,-47.35309000
103.28292847,-47.11137000
103.33061218,-50.30260000
103.37829590,-52.73069000
103.42597961,-63.37803000
103.47366333,-58.69077000
103.52134705,-58.32807000
103.56903076,-71.15833000
103.61671448,-60.61107000
103.66439819,-55.96226000
103.71208191,-56.09384000
103.75976563,-57.83779000
103.80744934,-61.25467000
103.85513306,-62.57345000
103.90281677,-57.72039000
103.95050049,-51.91532000
103.99818420,-54.80910000
104.04586792,-65.49234000
104.09355164,-55.07382000
104.14123535,-53.64518000
104.18891907,-52.71336000
104.23660278,-54.45265000
104.28428650,-61.44947000
104.33197021,-55.26015000
104.37965393,-50.84611000
104.42733765,-52.50439000
104.47502136,-60.88489000
104.52270508,-68.90195000
104.57038879,-59.10397000
104.61807251,-57.79970000
104.66575623,-53.93882000
104.71343994,-49.89906000
104.76112366,-51.21278000
104.80880737,-61.68362000
104.85649109,-61.06342000
104.90417480,-57.21882000
104.95185852,-53.46345000
104.99954224,-51.90117000
105.04722595,-55.06395000
105.09490967,-57.36693000
105.14259338,-52.01847000
105.19027710,-50.32036000
105.23796082,-53.42991000
105.28564453,-53.17741000
105.33332825,-51.94361000
105.38101196,-58.36573000
105.42869568,-62.09326000
105.47637939,-74.26009000
105.52406311,-68.00910000
105.57174683,-56.56100000
105.61943054,-51.61032000
105.66711426,-51.93229000
105.71479797,-59.10279000
105.76248169,-76.03123000
105.81016541,-74.33511000
105.85784912,-64.89785000
105.90553284,-58.94976000
105.95321655,-53.92826000
106.00090027,-62.43887000
106.04858398,-58.99735000
106.09626770,-53.02525000
106.14395142,-51.08961000
106.19163513,-51.89602000
106.23931885,-57.06979000
106.28700256,-62.80149000
106.33468628,-57.88111000
106.38237000,-53.62379000
106.43005371,-59.78638000
106.47773743,-54.55791000
106.52542114,-51.07107000
106.57310486,-52.03696000
106.62078857,-56.93377000
106.66847229,-54.18372000
106.71615601,-53.03512000
106.76383972,-56.14534000
106.81152344,-53.32926000
106.85920715,-49.33201000
106.90689087,-51.80902000
106.95457458,-77.73412000
107.00225830,-61.04069000
107.04994202,-58.14102000
107.09762573,-55.84740000
107.14530945,-59.95943000
107.19299316,-55.88199000
107.24067688,-56.76987000
107.28836060,-61.39172000
107.33604431,-60.33677000
107.38372803,-57.36668000
107.43141174,-61.13228000
107.47909546,-61.14754000
107.52677917,-59.05203000
107.57446289,-63.37277000
107.62214661,-60.06276000
107.66983032,-54.99686000
107.71751404,-56.60286000
107.76519775,-65.63548000
107.81288147,-73.85578000
107.86056519,-60.78529000
107.90824890,-53.42310000
107.95593262,-52.44211000
108.00361633,-57.98129000
108.05130005,-68.16984000
108.09898376,-59.90886000
108.14666748,-53.89935000
108.19435120,-52.50543000
108.24203491,-53.34513000
108.28971863,-52.59382000
108.33740234,-58.53934000
108.38508606,-56.67000000
108.43276978,-56.53931000
108.48045349,-59.66610000
108.52813721,-51.81376000
108.57582092,-53.08366000
108.62350464,-53.24691000
108.67118835,-52.58421000
108.71887207,-59.53894000
108.76655579,-71.68633000
108.81423950,-57.87147000
108.86192322,-52.96841000
108.90960693,-53.81460000
108.95729065,-52.10514000
109.00497437,-50.34548000
109.05265808,-55.09379000
109.10034180,-60.63200000
109.14802551,-58.19805000
109.19570923,-62.12484000
109.24339294,-63.87716000
109.29107666,-64.77599000
109.33876038,-55.08693000
109.38644409,-53.79501000
109.43412781,-53.83762000
109.48181152,-70.70558000
109.52949524,-58.20973000
109.57717896,-70.09866000
109.62486267,-66.09298000
109.67254639,-57.48247000
109.72023010,-59.43967000
109.76791382,-58.26665000
109.81559753,-56.52363000
109.86328125,-69.01859000
109.91096497,-57.86636000
109.95864868,-58.75441000
110.00633240,-61.88271000
110.05401611,-56.03267000
110.10169983,-53.21789000
110.14938354,-54.67654000
110.19706726,-72.63345000
110.24475098,-58.10499000
110.29243469,-65.80421000
110.34011841,-64.04932000
110.38780212,-57.84133000
110.43548584,-52.73338000
110.48316956,-52.97712000
110.53085327,-57.20554000
110.57853699,-60.03358000
110.62622070,-60.73074000
110.67390442,-60.56837000
110.72158813,-57.78085000
110.76927185,-56.30101000
110.81695557,-60.29607000
110.86463928,-57.65888000
110.91232300,-54.78967000
110.96000671,-54.18064000
111.00769043,-57.76101000
111.05537415,-65.90501000
111.10305786,-68.80186000
111.15074158,-66.64472000
111.19842529,-62.34477000
111.24610901,-62.20710000
111.29379272,-58.98850000
111.34147644,-65.31879000
111.38916016,-57.43130000
111.43684387,-54.13138000
111.48452759,-75.11057000
111.53221130,-55.04942000
111.57989502,-54.98466000
111.62757874,-56.12897000
111.67526245,-63.17056000
111.72294617,-71.22556000
111.77062988,-56.98157000
111.81831360,-53.65662000
111.86599731,-55.61473000
111.91368103,-57.45475000
111.96136475,-59.00898000
112.00904846,-59.08959000
112.05673218,-60.86739000
112.10441589,-66.17747000
112.15209961,-56.87268000
112.19978333,-57.83043000
112.24746704,-62.05938000
112.29515076,-59.10158000
112.34283447,-58.13219000
112.39051819,-57.64171000
112.43820190,-60.60770000
112.48588562,-62.10928000
112.53356934,-67.56600000
112.58125305,-52.46841000
112.62893677,-48.05567000
112.67662048,-48.46000000
112.72430420,-53.52347000
112.77198792,-60.78364000
112.81967163,-58.71716000
112.86735535,-53.79656000
112.91503906,-53.99382000
112.96272278,-57.75227000
113.01040649,-59.80502000
113.05809021,-57.50845000
113.10577393,-61.99169000
113.15345764,-60.03889000
113.20114136,-53.47926000
113.24882507,-56.70527000
113.29650879,-54.97236000
113.34419250,-53.75047000
113.39187622,-59.41380000
113.43955994,-78.40369000
113.48724365,-57.94803000
113.53492737,-52.35645000
113.58261108,-51.78669000
113.63029480,-54.78161000
113.67797852,-58.36170000
113.72566223,-61.75246000
113.77334595,-58.92896000
113.82102966,-57.37626000
113.86871338,-55.41901000
113.91639709,-55.41605000
113.96408081,-59.75125000
114.01176453,-57.27243000
114.05944824,-58.09876000
114.10713196,-60.17391000
114.15481567,-61.27759000
114.20249939,-57.67777000
114.25018311,-65.61671000
114.29786682,-56.35363000
114.34555054,-55.22037000
114.39323425,-56.98242000
114.44091797,-56.95686000
114.48860168,-54.83027000
114.53628540,-53.15801000
114.58396912,-57.88197000
114.63165283,-63.75735000
114.67933655,-59.09457000
114.72702026,-60.89065000
114.77470398,-72.53474000
114.82238770,-61.59174000
114.87007141,-56.48489000
114.91775513,-62.77480000
114.96543884,-57.44752000
115.01312256,-57.60486000
115.06080627,-58.84173000
115.10848999,-53.76289000
115.15617371,-57.52645000
115.20385742,-53.63766000
115.25154114,-51.60263000
115.29922485,-51.96220000
115.34690857,-54.76821000
115.39459229,-54.49755000
115.44227600,-55.00976000
115.48995972,-66.97461000
115.53764343,-56.27974000
115.58532715,-61.29976000
115.63301086,-62.45136000
115.68069458,-63.90911000
115.72837830,-63.74599000
115.77606201,-63.54618000
115.82374573,-66.52696000
115.87142944,-57.75544000
115.91911316,-56.85199000
115.96679688,-62.53098000
116.01448059,-51.55987000
116.06216431,-52.97218000
116.10984802,-56.50872000
116.15753174,-57.81752000
116.20521545,-54.86948000
116.25289917,-53.76862000
116.30058289,-51.64286000
116.34826660,-49.35360000
116.39595032,-50.12808000
116.44363403,-51.52427000
116.49131775,-51.62547000
116.53900146,-56.50829000
116.58668518,-62.70721000
116.63436890,-53.84726000
116.68205261,-51.47282000
116.72973633,-54.06047000
116.77742004,-64.69405000
116.82510376,-59.95459000
116.87278748,-57.96002000
116.92047119,-62.22076000
116.96815491,-61.28832000
117.01583862,-56.34446000
117.06352234,-53.54369000
117.11120605,-56.04929000
117.15888977,-64.55247000
117.20657349,-61.96804000
117.25425720,-53.76867000
117.30194092,-50.84618000
117.34962463,-51.83949000
117.39730835,-58.96450000
117.44499207,-76.18318000
117.49267578,-69.37829000
117.54035950,-63.29709000
117.58804321,-53.70294000
117.63572693,-53.03381000
117.68341064,-60.47528000
117.73109436,-64.40974000
117.77877808,-55.31411000
117.82646179,-51.35027000
117.87414551,-52.25764000
117.92182922,-58.83139000
117.96951294,-58.26181000
118.01719666,-60.37917000
118.06488037,-61.65222000
118.11256409,-51.43513000
118.16024780,-50.20742000
118.20793152,-54.23718000
118.25561523,-59.20285000
118.30329895,-61.07518000
118.35098267,-57.53299000
118.39866638,-50.37918000
118.44635010,-51.58416000
118.49403381,-63.87061000
118.54171753,-59.17363000
118.58940125,-60.64323000
118.63708496,-60.75936000
118.68476868,-54.10601000
118.73245239,-52.99578000
118.78013611,-53.26515000
118.82781982,-55.24172000
118.87550354,-55.85175000
118.92318726,-53.10149000
118.97087097,-54.44321000
119.01855469,-58.77159000
119.06623840,-57.18752000
119.11392212,-57.75927000
119.16160583,-61.65357000
119.20928955,-57.65469000
119.25697327,-54.79086000
119.30465698,-52.59596000
119.35234070,-49.72212000
119.40002441,-49.20568000
119.44770813,-53.89660000
119.49539185,-62.15331000
119.54307556,-57.67055000
119.59075928,-52.84124000
119.63844299,-59.81039000
119.68612671,-55.35324000
119.73381042,-50.77778000
119.78149414,-52.41371000
119.82917786,-53.75070000
119.87686157,-51.78906000
119.92454529,-52.65182000
119.97222900,-62.05637000
120.01991272,-59.29308000
120.06759644,-55.02210000
120.11528015,-53.53455000
120.16296387,-55.91282000
120.21064758,-62.85239000
120.25833130,-66.75744000
120.30601501,-89.92310000
120.35369873,-59.50069000
120.40138245,-56.88456000
120.44906616,-56.04805000
120.49674988,-53.63665000
120.54443359,-52.11766000
120.59211731,-53.70734000
120.63980103,-55.80801000
120.68748474,-53.73100000
120.73516846,-56.45699000
120.78285217,-52.80222000
120.83053589,-55.87763000
120.87821960,-62.69489000
120.92590332,-60.12659000
120.97358704,-58.37154000
121.02127075,-60.00617000
121.06895447,-58.65437000
121.11663818,-58.61267000
121.16432190,-61.40730000
121.21200562,-52.07251000
121.25968933,-49.65216000
121.30737305,-52.41871000
121.35505676,-55.28317000
121.40274048,-51.77488000
121.45042419,-50.09360000
121.49810791,-53.28835000
121.54579163,-60.30753000
121.59347534,-56.02064000
121.64115906,-52.06829000
121.68884277,-54.03867000
121.73652649,-57.84481000
121.78421021,-56.05921000
121.83189392,-54.14740000
121.87957764,-52.99094000
121.92726135,-59.73071000
121.97494507,-54.36337000
122.02262878,-55.86346000
122.07031250,-61.04713000
122.11799622,-63.09345000
122.16567993,-65.14613000
122.21336365,-63.10361000
122.26104736,-66.12179000
122.30873108,-57.59025000
122.35641479,-54.67375000
122.40409851,-50.93181000
122.45178223,-52.58220000
122.49946594,-56.93321000
122.54714966,-57.67822000
122.59483337,-61.77994000
122.64251709,-59.76977000
122.69020081,-55.99020000
122.73788452,-59.23025000
122.78556824,-62.07325000
122.83325195,-66.01151000
122.88093567,-57.80542000
122.92861938,-67.33165000
122.97630310,-53.38844000
123.02398682,-50.15355000
123.07167053,-50.41584000
123.11935425,-51.00790000
123.16703796,-55.06843000
123.21472168,-57.05139000
123.26240540,-55.39850000
123.31008911,-56.61585000
123.35777283,-59.94406000
123.40545654,-60.69828000
123.45314026,-60.73185000
123.50082397,-62.04761000
123.54850769,-55.93083000
123.59619141,-53.73680000
123.64387512,-60.38524000
123.69155884,-60.36432000
123.73924255,-53.97168000
123.78692627,-52.45661000
123.83460999,-55.44588000
123.88229370,-60.17317000
123.92997742,-66.19299000
123.97766113,-66.23437000
124.02534485,-70.97917000
124.07302856,-67.36783000
124.12071228,-57.87754000
124.16839600,-52.92254000
124.21607971,-54.88758000
124.26376343,-55.76360000
124.31144714,-52.69427000
124.35913086,-52.08870000
124.40681458,-55.79696000
124.45449829,-58.30118000
124.50218201,-53.75832000
124.54986572,-52.29454000
124.59754944,-48.38159000
124.64523315,-51.21594000
124.69291687,-53.62309000
124.74060059,-51.61051000
124.78828430,-53.85939000
124.83596802,-61.84692000
124.88365173,-60.45882000
124.93133545,-56.75018000
124.97901917,-63.44442000
125.02670288,-68.34238000
125.07438660,-58.71172000
125.12207031,-54.92502000
125.16975403,-53.89486000
125.21743774,-56.48846000
125.26512146,-63.21237000
125.31280518,-54.95258000
125.36048889,-49.94443000
125.40817261,-51.01227000
125.45585632,-56.16756000
125.50354004,-53.22137000
125.55122375,-56.13008000
125.59890747,-60.47916000
125.64659119,-57.81499000
125.69427490,-60.02433000
125.74195862,-57.89293000
125.78964233,-55.58688000
125.83732605,-55.83559000
125.88500977,-58.78853000
125.93269348,-56.04906000
125.98037720,-52.99619000
126.02806091,-57.46589000
126.07574463,-63.20609000
126.12342834,-63.34717000
126.17111206,-84.93909000
126.21879578,-70.40891000
126.26647949,-59.84431000
126.31416321,-54.37908000
126.36184692,-51.51944000
126.40953064,-50.56277000
126.45721436,-51.72930000
126.50489807,-55.05835000
126.55258179,-57.55836000
126.60026550,-58.99608000
126.64794922,-61.36366000
126.69563293,-64.09162000
126.74331665,-61.49729000
126.79100037,-57.93644000
126.83868408,-54.69439000
126.88636780,-53.47303000
126.93405151,-53.61683000
126.98173523,-57.32838000
127.02941895,-59.01761000
127.07710266,-54.16720000
127.12478638,-53.38876000
127.17247009,-54.22664000
127.22015381,-54.45595000
127.26783752,-54.89349000
127.31552124,-57.37946000
127.36320496,-55.49049000
127.41088867,-55.32801000
127.45857239,-61.79971000
127.50625610,-55.65715000
127.55393982,-51.86919000
127.60162354,-51.38170000
127.64930725,-52.06554000
127.69699097,-55.73784000
127.74467468,-62.92423000
127.79235840,-55.09512000
127.84004211,-55.14973000
127.88772583,-59.49430000
127.93540955,-62.40668000
127.98309326,-62.52402000
128.03077698,-60.43620000
128.07846069,-64.25810000
128.12614441,-52.73054000
128.17382813,-50.14891000
128.22151184,-55.01509000
128.26919556,-71.52910000
128.31687927,-61.43930000
128.36456299,-58.57409000
128.41224670,-55.73281000
128.45993042,-55.70364000
128.50761414,-58.52914000
128.55529785,-59.92682000
128.60298157,-56.44217000
128.65066528,-56.31142000
128.69834900,-64.52890000
128.74603271,-63.99645000
128.79371643,-58.01864000
128.84140015,-53.86456000
128.88908386,-52.43713000
128.93676758,-54.21357000
128.98445129,-58.88657000
129.03213501,-62.57899000
129.07981873,-61.16975000
129.12750244,-56.42034000
129.17518616,-52.59310000
129.22286987,-53.94261000
129.27055359,-68.88015000
129.31823730,-59.98378000
129.36592102,-51.99526000
129.41360474,-49.37535000
129.46128845,-55.65370000
129.50897217,-58.19576000
129.55665588,-57.13934000
129.60433960,-55.89235000
129.65202332,-57.87187000
129.69970703,-65.19844000
129.74739075,-58.15391000
129.79507446,-54.81915000
129.84275818,-54.54888000
129.89044189,-60.97556000
129.93812561,-72.90349000
129.98580933,-56.83826000
130.03349304,-56.20953000
130.08117676,-56.65530000
130.12886047,-53.02178000
130.17654419,-51.44017000
130.22422791,-53.35705000
130.27191162,-64.82720000
130.31959534,-59.97585000
130.36727905,-56.85872000
130.41496277,-58.77439000
130.46264648,-56.82230000
130.51033020,-55.03258000
130.55801392,-60.83529000
130.60569763,-60.58186000
130.65338135,-52.82222000
130.70106506,-51.23072000
130.74874878,-55.36587000
130.79643250,-58.12351000
130.84411621,-57.39797000
130.89179993,-55.73094000
130.93948364,-51.28786000
130.98716736,-50.25451000
131.03485107,-53.74519000
131.08253479,-61.43668000
131.13021851,-61.34492000
131.17790222,-57.64951000
131.22558594,-55.89858000
131.27326965,-55.72931000
131.32095337,-57.37081000
131.36863708,-56.34853000
131.41632080,-54.01593000
131.46400452,-55.78498000
131.51168823,-62.68272000
131.55937195,-68.47849000
131.60705566,-60.23100000
131.65473938,-55.06493000
131.70242310,-63.35009000
131.75010681,-56.40465000
131.79779053,-51.24392000
131.84547424,-51.83430000
131.89315796,-53.60888000
131.94084167,-55.26847000
131.98852539,-55.94777000
132.03620911,-59.61481000
132.08389282,-65.09896000
132.13157654,-64.91139000
132.17926025,-58.52291000
132.22694397,-53.97769000
132.27462769,-52.02972000
132.32231140,-56.48223000
132.36999512,-53.76696000
132.41767883,-55.45877000
132.46536255,-61.33648000
132.51304626,-57.68255000
132.56072998,-57.79987000
132.60841370,-56.01803000
132.65609741,-52.07117000
132.70378113,-55.17018000
132.75146484,-63.28907000
132.79914856,-60.78300000
132.84683228,-59.19930000
132.89451599,-61.59874000
132.94219971,-68.85107000
132.98988342,-60.04910000
133.03756714,-53.31429000
133.08525085,-53.14640000
133.13293457,-53.59873000
133.18061829,-55.30482000
133.22830200,-57.59876000
133.27598572,-56.16738000
133.32366943,-51.71596000
133.37135315,-53.64764000
133.41903687,-67.54988000
133.46672058,-56.07524000
133.51440430,-57.25681000
133.56208801,-55.72651000
133.60977173,-52.44046000
133.65745544,-53.89999000
133.70513916,-56.72269000
133.75282288,-63.40158000
133.80050659,-65.43237000
133.84819031,-56.10732000
133.89587402,-54.70923000
133.94355774,-68.75588000
133.99124146,-58.97873000
134.03892517,-63.86774000
134.08660889,-61.84834000
134.13429260,-60.50524000
134.18197632,-61.47906000
134.22966003,-58.78159000
134.27734375,-56.76306000
134.32502747,-56.87056000
134.37271118,-55.73098000
134.42039490,-56.96009000
134.46807861,-64.50957000
134.51576233,-61.20580000
134.56344604,-64.90276000
134.61112976,-61.04067000
134.65881348,-53.75541000
134.70649719,-53.92616000
134.75418091,-58.37647000
134.80186462,-69.66957000
134.84954834,-67.51105000
134.89723206,-55.72596000
134.94491577,-52.50864000
134.99259949,-58.14239000
135.04028320,-65.32899000
135.08796692,-66.54906000
135.13565063,-56.45694000
135.18333435,-52.75628000
135.23101807,-52.18578000
135.27870178,-54.49154000
135.32638550,-62.43058000
135.37406921,-61.39270000
135.42175293,-56.23036000
135.46943665,-54.55106000
135.51712036,-58.22316000
135.56480408,-61.86060000
135.61248779,-54.82993000
135.66017151,-60.76044000
135.70785522,-71.37682000
135.75553894,-59.46370000
135.80322266,-58.62821000
135.85090637,-63.39534000
135.89859009,-61.03431000
135.94627380,-62.70630000
135.99395752,-69.11314000
136.04164124,-60.12164000
136.08932495,-59.78215000
136.13700867,-60.34347000
136.18469238,-57.10504000
136.23237610,-52.06574000
136.28005981,-53.31311000
136.32774353,-63.67043000
136.37542725,-60.37984000
136.42311096,-60.88760000
136.47079468,-65.36987000
136.51847839,-71.56037000
136.56616211,-56.61541000
136.61384583,-53.51164000
136.66152954,-55.78555000
136.70921326,-60.70473000
136.75689697,-73.09720000
136.80458069,-56.29623000
136.85226440,-52.77141000
136.89994812,-56.46385000
136.94763184,-72.54446000
136.99531555,-65.37788000
137.04299927,-60.63010000
137.09068298,-58.48167000
137.13836670,-56.22570000
137.18605042,-56.42485000
137.23373413,-58.82902000
137.28141785,-60.13305000
137.32910156,-58.55473000
137.37678528,-59.30768000
137.42446899,-66.93518000
137.47215271,-65.44463000
137.51983643,-61.80158000
137.56752014,-60.37582000
137.61520386,-58.28090000
137.66288757,-64.11697000
137.71057129,-55.27987000
137.75825500,-52.83062000
137.80593872,-53.61597000
137.85362244,-56.51546000
137.90130615,-76.64687000
137.94898987,-60.27199000
137.99667358,-63.69828000
138.04435730,-69.82520000
138.09204102,-65.81874000
138.13972473,-63.04246000
138.18740845,-67.69980000
138.23509216,-57.48244000
138.28277588,-56.20272000
138.33045959,-61.07731000
138.37814331,-60.21725000
138.42582703,-53.45333000
138.47351074,-48.74062000
138.52119446,-49.10072000
138.56887817,-49.82398000
138.61656189,-54.53133000
138.66424561,-59.24082000
138.71192932,-53.15846000
138.75961304,-52.15109000
138.80729675,-68.76585000
138.85498047,-55.45042000
138.90266418,-55.51137000
138.95034790,-61.15786000
138.99803162,-63.24438000
139.04571533,-59.32146000
139.09339905,-60.08570000
139.14108276,-61.35110000
139.18876648,-59.82597000
139.23645020,-61.59591000
139.28413391,-67.17204000
139.33181763,-77.25861000
139.37950134,-64.10910000
139.42718506,-56.45548000
139.47486877,-58.01987000
139.52255249,-60.85946000
139.57023621,-56.50508000
139.61791992,-64.43507000
139.66560364,-59.49236000
139.71328735,-66.93176000
139.76097107,-56.19613000
139.80865479,-52.65269000
139.85633850,-52.02526000
139.90402222,-55.57065000
139.95170593,-63.60591000
139.99938965,-54.68249000
140.04707336,-53.36704000
140.09475708,-54.29288000
140.14244080,-60.12487000
140.19012451,-55.39586000
140.23780823,-54.86141000
140.28549194,-59.26117000
140.33317566,-55.08362000
140.38085938,-57.05185000
140.42854309,-63.67039000
140.47622681,-62.90367000
140.52391052,-57.31884000
140.57159424,-57.73519000
140.61927795,-66.96341000
140.66696167,-51.58517000
140.71464539,-49.14118000
140.76232910,-51.30073000
140.81001282,-51.41407000
140.85769653,-52.18155000
140.90538025,-53.94158000
140.95306396,-56.95015000
141.00074768,-66.92319000
141.04843140,-62.58216000
141.09611511,-57.95669000
141.14379883,-74.17616000
141.19148254,-58.56845000
141.23916626,-56.71249000
141.28684998,-56.50290000
141.33453369,-56.83861000
141.38221741,-56.08898000
141.42990112,-57.55439000
141.47758484,-56.08389000
141.52526855,-53.51741000
141.57295227,-55.47292000
141.62063599,-54.87719000
141.66831970,-56.26747000
141.71600342,-65.42107000
141.76368713,-56.39017000
141.81137085,-52.80026000
141.85905457,-53.04012000
141.90673828,-53.10461000
141.95442200,-51.48859000
142.00210571,-50.81985000
142.04978943,-56.57420000
142.09747314,-71.26698000
142.14515686,-74.90269000
142.19284058,-71.52466000
142.24052429,-63.65053000
142.28820801,-64.67828000
142.33589172,-63.53761000
142.38357544,-60.10830000
142.43125916,-65.57611000
142.47894287,-54.66748000
142.52662659,-53.24136000
142.57431030,-55.17346000
142.62199402,-56.61520000
142.66967773,-68.55381000
142.71736145,-59.32377000
142.76504517,-53.67740000
142.81272888,-52.60058000
142.86041260,-51.44864000
142.90809631,-51.01857000
142.95578003,-54.01195000
143.00346375,-69.09375000
143.05114746,-55.38755000
143.09883118,-50.68075000
143.14651489,-50.65491000
143.19419861,-51.21719000
143.24188232,-51.55143000
143.28956604,-51.82672000
143.33724976,-53.37593000
143.38493347,-64.48933000
143.43261719,-65.78376000
143.48030090,-66.11575000
143.52798462,-62.71259000
143.57566833,-60.48865000
143.62335205,-57.06695000
143.67103577,-55.93613000
143.71871948,-58.20428000
143.76640320,-57.93796000
143.81408691,-61.53611000
143.86177063,-49.31335000
143.90945435,-49.48598000
143.95713806,-52.55796000
144.00482178,-52.79482000
144.05250549,-53.53062000
144.10018921,-54.04837000
144.14787292,-55.58199000
144.19555664,-56.86555000
144.24324036,-56.45303000
144.29092407,-53.50988000
144.33860779,-53.42348000
144.38629150,-56.01060000
144.43397522,-57.79052000
144.48165894,-61.50019000
144.52934265,-65.72509000
144.57702637,-59.16413000
144.62471008,-57.94439000
144.67239380,-54.37385000
144.72007751,-53.84457000
144.76776123,-57.98474000
144.81544495,-57.76451000
144.86312866,-55.60487000
144.91081238,-54.40940000
144.95849609,-58.60779000
145.00617981,-59.91434000
145.05386353,-66.40898000
145.10154724,-59.50797000
145.14923096,-55.67581000
145.19691467,-56.27709000
145.24459839,-64.11205000
145.29228210,-57.07356000
145.33996582,-53.96338000
145.38764954,-56.59148000
145.43533325,-57.50048000
145.48301697,-56.44256000
145.53070068,-52.16333000
145.57838440,-50.65188000
145.62606812,-52.60551000
145.67375183,-54.45477000
145.72143555,-59.94583000
145.76911926,-52.50812000
145.81680298,-53.31007000
145.86448669,-60.87194000
145.91217041,-60.82601000
145.95985413,-76.13584000
146.00753784,-61.54119000
146.05522156,-65.38182000
146.10290527,-74.05206000
146.15058899,-63.33207000
146.19827271,-53.46931000
146.24595642,-58.41979000
146.29364014,-60.89806000
146.34132385,-57.01818000
146.38900757,-52.19070000
146.43669128,-51.24926000
146.48437500,-53.20167000
146.53205872,-55.41032000
146.57974243,-58.10658000
146.62742615,-65.88210000
146.67510986,-59.52564000
146.72279358,-59.85549000
146.77047729,-61.49794000
146.81816101,-57.96798000
146.86584473,-67.05466000
146.91352844,-70.11634000
146.96121216,-66.52774000
147.00889587,-61.67567000
147.05657959,-62.91533000
147.10426331,-71.10288000
147.15194702,-68.80558000
147.19963074,-61.76971000
147.24731445,-53.89035000
147.29499817,-53.01025000
147.34268188,-52.08179000
147.39036560,-53.05356000
147.43804932,-67.97438000
147.48573303,-54.15950000
147.53341675,-52.98088000
147.58110046,-50.68600000
147.62878418,-52.79977000
147.67646790,-60.00826000
147.72415161,-51.08137000
147.77183533,-50.66198000
147.81951904,-52.09914000
147.86720276,-51.72462000
147.91488647,-55.64808000
147.96257019,-64.13417000
148.01025391,-60.05096000
148.05793762,-58.57952000
148.10562134,-63.03919000
148.15330505,-68.85146000
148.20098877,-65.59929000
148.24867249,-59.81472000
148.29635620,-60.57606000
148.34403992,-56.59438000
148.39172363,-55.26957000
148.43940735,-63.13074000
148.48709106,-59.30873000
148.53477478,-52.43578000
148.58245850,-51.37438000
148.63014221,-53.69670000
148.67782593,-53.21713000
148.72550964,-51.18818000
148.77319336,-51.79298000
148.82087708,-56.03077000
148.86856079,-61.55781000
148.91624451,-56.98430000
148.96392822,-54.82491000
149.01161194,-63.85715000
149.05929565,-61.39228000
149.10697937,-53.88216000
149.15466309,-54.29335000
149.20234680,-67.97636000
149.25003052,-60.41641000
149.29771423,-56.61396000
149.34539795,-53.54292000
149.39308167,-57.00742000
149.44076538,-73.89326000
149.48844910,-71.02193000
149.53613281,-61.81153000
149.58381653,-62.58241000
149.63150024,-55.57790000
149.67918396,-52.15467000
149.72686768,-51.27762000
149.77455139,-56.22852000
149.82223511,-56.80637000
149.86991882,-55.49839000
149.91760254,-54.16909000
149.96528625,-61.29191000
150.01296997,-64.68518000
150.06065369,-58.83289000
150.10833740,-56.53532000
150.15602112,-53.18075000
150.20370483,-54.17370000
150.25138855,-65.15912000
150.29907227,-56.22805000
150.34675598,-54.38229000
150.39443970,-53.72396000
150.44212341,-53.00803000
150.48980713,-55.88143000
150.53749084,-53.15087000
150.58517456,-51.29959000
150.63285828,-55.04101000
150.68054199,-58.13647000
150.72822571,-59.24159000
150.77590942,-70.29538000
150.82359314,-60.41238000
150.87127686,-51.69263000
150.91896057,-50.69661000
150.96664429,-56.54226000
151.01432800,-56.94976000
151.06201172,-53.85879000
151.10969543,-54.90759000
151.15737915,-61.33228000
151.20506287,-61.05552000
151.25274658,-61.23271000
151.30043030,-61.98269000
151.34811401,-59.39697000
151.39579773,-59.48704000
151.44348145,-59.74879000
151.49116516,-58.83351000
151.53884888,-59.66210000
151.58653259,-61.77591000
151.63421631,-57.82015000
151.68190002,-54.97082000
151.72958374,-53.41744000
151.77726746,-53.74374000
151.82495117,-56.94054000
151.87263489,-57.51572000
151.92031860,-57.25190000
151.96800232,-54.66450000
152.01568604,-54.12656000
152.06336975,-55.01968000
152.11105347,-56.66150000
152.15873718,-64.24818000
152.20642090,-57.85859000
152.25410461,-51.73721000
152.30178833,-56.17091000
152.34947205,-56.47213000
152.39715576,-57.73264000
152.44483948,-59.64392000
152.49252319,-56.86280000
152.54020691,-56.74588000
152.58789063,-61.23538000
152.63557434,-61.09098000
152.68325806,-53.22686000
152.73094177,-54.13149000
152.77862549,-61.26331000
152.82630920,-58.47462000
152.87399292,-61.13415000
152.92167664,-56.66487000
152.96936035,-54.87005000
153.01704407,-55.09447000
153.06472778,-56.97210000
153.11241150,-61.52723000
153.16009521,-55.77986000
153.20777893,-54.82158000
153.25546265,-54.88344000
153.30314636,-55.68482000
153.35083008,-62.35691000
153.39851379,-63.29662000
153.44619751,-57.59389000
153.49388123,-52.85376000
153.54156494,-54.46264000
153.58924866,-55.47010000
153.63693237,-56.13464000
153.68461609,-60.39081000
153.73229980,-60.93115000
153.77998352,-58.00415000
153.82766724,-68.41263000
153.87535095,-64.43190000
153.92303467,-69.01454000
153.97071838,-61.50727000
154.01840210,-59.65496000
154.06608582,-55.39116000
154.11376953,-52.10171000
154.16145325,-53.38710000
154.20913696,-55.68359000
154.25682068,-60.53822000
154.30450439,-61.95046000
154.35218811,-69.17243000
154.39987183,-59.88321000
154.44755554,-65.72417000
154.49523926,-59.03096000
154.54292297,-61.68827000
154.59060669,-72.98148000
154.63829041,-63.12992000
154.68597412,-60.99769000
154.73365784,-58.46280000
154.78134155,-65.25501000
154.82902527,-56.04296000
154.87670898,-53.57417000
154.92439270,-55.26144000
154.97207642,-62.92414000
155.01976013,-62.55491000
155.06744385,-53.29535000
155.11512756,-52.00903000
155.16281128,-58.41047000
155.21049500,-55.76950000
155.25817871,-51.18110000
155.30586243,-53.29267000
155.35354614,-60.73797000
155.40122986,-64.57072000
155.44891357,-60.73922000
155.49659729,-58.29241000
155.54428101,-58.13694000
155.59196472,-56.41270000
155.63964844,-57.66325000
155.68733215,-69.36308000
155.73501587,-56.73220000
155.78269958,-57.52187000
155.83038330,-61.56767000
155.87806702,-57.96933000
155.92575073,-56.72983000
155.97343445,-70.67300000
156.02111816,-60.98641000
156.06880188,-64.38193000
156.11648560,-64.05755000
156.16416931,-63.39169000
156.21185303,-63.73688000
156.25953674,-56.65054000
156.30722046,-58.64266000
156.35490417,-60.17017000
156.40258789,-55.52186000
156.45027161,-52.37926000
156.49795532,-48.62292000
156.54563904,-50.41677000
156.59332275,-57.10488000
156.64100647,-58.85714000
156.68869019,-57.50679000
156.73637390,-57.45692000
156.78405762,-55.38443000
156.83174133,-56.00757000
156.87942505,-57.84184000
156.92710876,-53.36033000
156.97479248,-50.57993000
157.02247620,-50.63697000
157.07015991,-54.36979000
157.11784363,-58.28658000
157.16552734,-56.67902000
157.21321106,-57.94266000
157.26089478,-57.10335000
157.30857849,-56.77031000
157.35626221,-55.18867000
157.40394592,-52.30970000
157.45162964,-52.73593000
157.49931335,-58.37669000
157.54699707,-60.52684000
157.59468079,-57.16874000
157.64236450,-55.08744000
157.69004822,-53.20744000
157.73773193,-55.42986000
157.78541565,-56.86424000
157.83309937,-55.86102000
157.88078308,-50.10993000
157.92846680,-55.54871000
157.97615051,-72.53606000
158.02383423,-70.22255000
158.07151794,-59.93599000
158.11920166,-55.59851000
158.16688538,-61.29822000
158.21456909,-55.71436000
158.26225281,-61.06311000
158.30993652,-63.21391000
158.35762024,-69.66679000
158.40530396,-62.93782000
158.45298767,-56.75247000
158.50067139,-55.94635000
158.54835510,-53.16290000
158.59603882,-56.90554000
158.64372253,-57.31883000
158.69140625,-52.26694000
158.73908997,-51.36766000
158.78677368,-52.20191000
158.83445740,-59.24736000
158.88214111,-54.00507000
158.92982483,-50.96529000
158.97750854,-55.41910000
159.02519226,-66.00074000
159.07287598,-54.74729000
159.12055969,-58.08748000
159.16824341,-66.67044000
159.21592712,-60.68289000
159.26361084,-63.48835000
159.31129456,-53.79074000
159.35897827,-51.26876000
159.40666199,-54.08942000
159.45434570,-54.58210000
159.50202942,-54.64944000
159.54971313,-52.42614000
159.59739685,-52.07720000
159.64508057,-57.60138000
159.69276428,-66.08846000
159.74044800,-60.83846000
159.78813171,-62.77081000
159.83581543,-64.46712000
159.88349915,-71.34599000
159.93118286,-61.52594000
159.97886658,-59.88920000
160.02655029,-66.31009000
160.07423401,-62.11561000
160.12191772,-60.10848000
160.16960144,-62.72404000
160.21728516,-59.12878000
160.26496887,-54.01051000
160.31265259,-51.55411000
160.36033630,-49.97198000
160.40802002,-52.88170000
160.45570374,-59.76574000
160.50338745,-59.14926000
160.55107117,-63.65059000
160.59875488,-59.01355000
160.64643860,-65.14641000
160.69412231,-58.32319000
160.74180603,-51.96055000
160.78948975,-50.35465000
160.83717346,-53.72372000
160.88485718,-59.45195000
160.93254089,-57.35664000
160.98022461,-58.47344000
161.02790833,-60.39311000
161.07559204,-65.27119000
161.12327576,-61.05281000
161.17095947,-59.77688000
161.21864319,-55.36839000
161.26632690,-54.73492000
161.31401062,-52.95854000
161.36169434,-52.02956000
161.40937805,-51.99909000
161.45706177,-58.70212000
161.50474548,-61.42097000
161.55242920,-58.77466000
161.60011292,-66.63382000
161.64779663,-52.78854000
161.69548035,-49.01875000
161.74316406,-47.19313000
161.79084778,-49.52974000
161.83853149,-59.44928000
161.88621521,-57.01692000
161.93389893,-54.90282000
161.98158264,-54.18093000
162.02926636,-57.98769000
162.07695007,-67.31088000
162.12463379,-73.00727000
162.17231750,-61.83252000
162.22000122,-55.78202000
162.26768494,-55.25032000
162.31536865,-59.04606000
162.36305237,-65.53304000
162.41073608,-57.49475000
162.45841980,-54.33041000
162.50610352,-84.54636000
162.55378723,-52.92058000
162.60147095,-51.30177000
162.64915466,-52.85366000
162.69683838,-55.24532000
162.74452209,-60.72380000
162.79220581,-59.78503000
162.83988953,-59.11845000
162.88757324,-56.48542000
162.93525696,-57.15542000
162.98294067,-58.57354000
163.03062439,-59.90172000
163.07830811,-60.73547000
163.12599182,-52.05658000
163.17367554,-53.28761000
163.22135925,-57.04287000
163.26904297,-57.78240000
163.31672668,-57.78450000
163.36441040,-57.41206000
163.41209412,-54.74894000
163.45977783,-53.79248000
163.50746155,-52.78862000
163.55514526,-58.07661000
163.60282898,-65.96010000
163.65051270,-61.27037000
163.69819641,-56.15012000
163.74588013,-59.35209000
163.79356384,-62.89075000
163.84124756,-73.15461000
163.88893127,-63.67098000
163.93661499,-59.26746000
163.98429871,-56.70189000
164.03198242,-59.13887000
164.07966614,-64.03741000
164.12734985,-67.21467000
164.17503357,-57.93061000
164.22271729,-53.73245000
164.27040100,-52.73883000
164.31808472,-53.20270000
164.36576843,-55.34422000
164.41345215,-56.08594000
164.46113586,-56.03931000
164.50881958,-56.57553000
164.55650330,-57.48684000
164.60418701,-58.73058000
164.65187073,-68.63284000
164.69955444,-56.77525000
164.74723816,-57.70626000
164.79492188,-60.15162000
164.84260559,-56.62712000
164.89028931,-55.60306000
164.93797302,-60.78774000
164.98565674,-64.91810000
165.03334045,-61.30122000
165.08102417,-57.92916000
165.12870789,-52.87882000
165.17639160,-50.10012000
165.22407532,-52.99255000
165.27175903,-56.57135000
165.31944275,-63.08934000
165.36712646,-57.57923000
165.41481018,-54.87957000
165.46249390,-57.93101000
165.51017761,-57.75444000
165.55786133,-66.85365000
165.60554504,-57.84822000
165.65322876,-56.70704000
165.70091248,-56.97998000
165.74859619,-57.96158000
165.79627991,-62.78814000
165.84396362,-62.27020000
165.89164734,-56.29791000
165.93933105,-55.47209000
165.98701477,-54.22306000
166.03469849,-51.00705000
166.08238220,-50.20396000
166.13006592,-49.87715000
166.17774963,-51.81252000
166.22543335,-53.14214000
166.27311707,-54.44939000
166.32080078,-62.34316000
166.36848450,-61.49435000
166.41616821,-58.38340000
166.46385193,-58.76952000
166.51153564,-56.36129000
166.55921936,-53.96072000
166.60690308,-51.28743000
166.65458679,-50.75905000
166.70227051,-58.31367000
166.74995422,-58.43393000
166.79763794,-54.01254000
166.84532166,-56.45962000
166.89300537,-69.64960000
166.94068909,-60.86852000
166.98837280,-60.28373000
167.03605652,-63.10209000
167.08374023,-68.06543000
167.13142395,-67.63017000
167.17910767,-66.06398000
167.22679138,-59.15731000
167.27447510,-55.47487000
167.32215881,-52.34639000
167.36984253,-51.26680000
167.41752625,-53.54518000
167.46520996,-62.15321000
167.51289368,-65.62390000
167.56057739,-59.20639000
167.60826111,-54.33811000
167.65594482,-68.76823000
167.70362854,-57.77006000
167.75131226,-56.41250000
167.79899597,-57.86373000
167.84667969,-57.74179000
167.89436340,-62.45982000
167.94204712,-62.82854000
167.98973083,-56.25780000
168.03741455,-58.85143000
168.08509827,-53.83499000
168.13278198,-50.68080000
168.18046570,-52.72498000
168.22814941,-58.05014000
168.27583313,-53.77535000
168.32351685,-56.60038000
168.37120056,-72.58958000
168.41888428,-72.44510000
168.46656799,-56.35540000
168.51425171,-60.10984000
168.56193542,-56.92231000
168.60961914,-50.80038000
168.65730286,-49.49789000
168.70498657,-49.76174000
168.75267029,-51.13509000
168.80035400,-51.53930000
168.84803772,-54.19500000
168.89572144,-56.88297000
168.94340515,-56.71005000
168.99108887,-61.97816000
169.03877258,-61.95694000
169.08645630,-55.13762000
169.13414001,-59.17050000
169.18182373,-70.46279000
169.22950745,-65.58028000
169.27719116,-55.86876000
169.32487488,-55.83988000
169.37255859,-57.70634000
169.42024231,-57.64355000
169.46792603,-59.79330000
169.51560974,-58.38157000
169.56329346,-57.52534000
169.61097717,-59.32921000
169.65866089,-67.71034000
169.70634460,-53.33166000
169.75402832,-52.06223000
169.80171204,-56.11739000
169.84939575,-61.31751000
169.89707947,-54.34101000
169.94476318,-54.40166000
169.99244690,-74.07108000
170.04013062,-58.46950000
170.08781433,-55.43003000
170.13549805,-54.85241000
170.18318176,-57.81374000
170.23086548,-77.02605000
170.27854919,-53.81834000
170.32623291,-53.20917000
170.37391663,-63.19984000
170.42160034,-71.35949000
170.46928406,-65.71329000
170.51696777,-60.67597000
170.56465149,-59.12746000
170.61233521,-58.05637000
170.66001892,-59.44645000
170.70770264,-55.86323000
170.75538635,-52.82585000
170.80307007,-51.06440000
170.85075378,-51.69428000
170.89843750,-55.88538000
170.94612122,-63.39583000
170.99380493,-56.48786000
171.04148865,-53.05481000
171.08917236,-56.81750000
171.13685608,-58.19722000
171.18453979,-55.09737000
171.23222351,-50.50552000
171.27990723,-49.20734000
171.32759094,-54.39034000
171.37527466,-58.61558000
171.42295837,-54.58305000
171.47064209,-53.62503000
171.51832581,-53.17980000
171.56600952,-57.63428000
171.61369324,-62.11681000
171.66137695,-60.51846000
171.70906067,-52.73278000
171.75674438,-51.68957000
171.80442810,-54.22110000
171.85211182,-56.01019000
171.89979553,-54.40819000
171.94747925,-53.45974000
171.99516296,-55.19891000
172.04284668,-56.87566000
172.09053040,-58.39043000
172.13821411,-53.52596000
172.18589783,-58.37550000
172.23358154,-63.69279000
172.28126526,-58.93407000
172.32894897,-61.08454000
172.37663269,-56.97336000
172.42431641,-58.15636000
172.47200012,-53.81583000
172.51968384,-47.66534000
172.56736755,-49.49445000
172.61505127,-56.78492000
172.66273499,-62.81738000
172.71041870,-56.14944000
172.75810242,-52.84417000
172.80578613,-53.73179000
172.85346985,-57.71227000
172.90115356,-60.70537000
172.94883728,-57.24616000
172.99652100,-55.91247000
173.04420471,-56.53132000
173.09188843,-57.76977000
173.13957214,-55.96575000
173.18725586,-56.09158000
173.23493958,-55.59227000
173.28262329,-53.81161000
173.33030701,-55.81039000
173.37799072,-62.07986000
173.42567444,-72.39468000
173.47335815,-58.23769000
173.52104187,-50.79635000
173.56872559,-51.53446000
173.61640930,-63.92783000
173.66409302,-60.70770000
173.71177673,-66.27055000
173.75946045,-58.99540000
173.80714417,-74.41550000
173.85482788,-75.38180000
173.90251160,-55.58420000
173.95019531,-50.75199000
173.99787903,-56.06842000
174.04556274,-53.57021000
174.09324646,-55.62660000
174.14093018,-55.64318000
174.18861389,-49.82849000
174.23629761,-48.84927000
174.28398132,-52.08614000
174.33166504,-56.62782000
174.37934875,-62.80402000
174.42703247,-58.38348000
174.47471619,-67.37294000
174.52239990,-57.49123000
174.57008362,-56.77166000
174.61776733,-53.35884000
174.66545105,-50.01194000
174.71313477,-51.73747000
174.76081848,-63.46206000
174.80850220,-61.34173000
174.85618591,-63.91545000
174.90386963,-58.27095000
174.95155334,-58.04852000
174.99923706,-59.50033000
175.04692078,-56.07253000
175.09460449,-51.44115000
175.14228821,-50.88428000
175.18997192,-53.64743000
175.23765564,-59.19873000
175.28533936,-61.56337000
175.33302307,-63.80289000
175.38070679,-56.48944000
175.42839050,-59.89679000
175.47607422,-62.24482000
175.52375793,-61.58064000
175.57144165,-59.17316000
175.61912537,-58.70958000
175.66680908,-56.08294000
175.71449280,-70.36992000
175.76217651,-59.77787000
175.80986023,-57.61498000
175.85754395,-58.17289000
175.90522766,-54.03563000
175.95291138,-53.72982000
176.00059509,-62.29769000
176.04827881,-50.72199000
176.09596252,-52.43097000
176.14364624,-53.30844000
176.19132996,-55.58305000
176.23901367,-65.92629000
176.28669739,-66.37433000
176.33438110,-57.00742000
176.38206482,-55.35099000
176.42974854,-54.86223000
176.47743225,-54.02058000
176.52511597,-55.63950000
176.57279968,-61.01012000
176.62048340,-77.42083000
176.66816711,-67.37168000
176.71585083,-61.69509000
176.76353455,-56.37051000
176.81121826,-57.10313000
176.85890198,-62.30965000
176.90658569,-65.27577000
176.95426941,-67.74173000
177.00195313,-57.82549000
177.04963684,-55.38834000
177.09732056,-56.12251000
177.14500427,-59.39134000
177.19268799,-60.63249000
177.24037170,-58.02388000
177.28805542,-57.58814000
177.33573914,-56.50266000
177.38342285,-54.12935000
177.43110657,-55.69541000
177.47879028,-61.88896000
177.52647400,-60.05334000
177.57415771,-77.23724000
177.62184143,-61.23543000
177.66952515,-63.00340000
177.71720886,-65.16024000
177.76489258,-60.82505000
177.81257629,-74.44907000
177.86026001,-67.40727000
177.90794373,-53.89329000
177.95562744,-51.81392000
178.00331116,-54.69960000
178.05099487,-60.38759000
178.09867859,-59.04636000
178.14636230,-60.25336000
178.19404602,-58.37788000
178.24172974,-55.56019000
178.28941345,-55.71228000
178.33709717,-60.39157000
178.38478088,-58.39081000
178.43246460,-54.82985000
178.48014832,-51.77198000
178.52783203,-52.00092000
178.57551575,-55.18958000
178.62319946,-57.66177000
178.67088318,-53.40244000
178.71856689,-59.72275000
178.76625061,-68.92390000
178.81393433,-66.28750000
178.86161804,-53.83272000
178.90930176,-51.16829000
178.95698547,-55.45642000
179.00466919,-64.98669000
179.05235291,-58.85508000
179.10003662,-64.45968000
179.14772034,-61.20687000
179.19540405,-64.68986000
179.24308777,-59.06495000
179.29077148,-56.58860000
179.33845520,-54.92611000
179.38613892,-54.73914000
179.43382263,-57.99964000
179.48150635,-64.48196000
179.52919006,-63.64338000
179.57687378,-61.48725000
179.62455750,-65.37399000
179.67224121,-71.43845000
179.71992493,-66.81479000
179.76760864,-65.56773000
179.81529236,-54.90532000
179.86297607,-50.28119000
179.91065979,-54.71154000
179.95834351,-63.56850000
180.00602722,-56.14127000
180.05371094,-66.12750000
180.10139465,-55.83903000
180.14907837,-53.84491000
180.19676208,-61.29943000
180.24444580,-61.56971000
180.29212952,-60.69801000
180.33981323,-65.95198000
180.38749695,-70.70752000
180.43518066,-65.79085000
180.48286438,-61.44289000
180.53054810,-60.10445000
180.57823181,-57.74624000
180.62591553,-53.33311000
180.67359924,-54.50803000
180.72128296,-64.98889000
180.76896667,-63.06448000
180.81665039,-59.16651000
180.86433411,-64.26706000
180.91201782,-59.62993000
180.95970154,-58.62685000
181.00738525,-60.17539000
181.05506897,-56.94047000
181.10275269,-51.70709000
181.15043640,-57.37701000
181.19812012,-59.42760000
181.24580383,-55.99683000
181.29348755,-58.37231000
181.34117126,-54.94060000
181.38885498,-62.19597000
181.43653870,-75.93677000
181.48422241,-63.91779000
181.53190613,-63.99189000
181.57958984,-63.21468000
181.62727356,-56.11102000
181.67495728,-54.45245000
181.72264099,-52.47177000
181.77032471,-52.26827000
181.81800842,-59.49012000
181.86569214,-58.53021000
181.91337585,-55.62724000
181.96105957,-57.52104000
182.00874329,-63.24642000
182.05642700,-59.07011000
182.10411072,-59.27603000
182.15179443,-63.57246000
182.19947815,-58.15951000
182.24716187,-51.80489000
182.29484558,-52.60229000
182.34252930,-57.89997000
182.39021301,-64.31613000
182.43789673,-54.99346000
182.48558044,-53.14741000
182.53326416,-55.36127000
182.58094788,-64.45182000
182.62863159,-58.28667000
182.67631531,-62.46450000
182.72399902,-60.27377000
182.77168274,-52.17930000
182.81936646,-52.74070000
182.86705017,-62.76203000
182.91473389,-62.90867000
182.96241760,-58.73434000
183.01010132,-56.52676000
183.05778503,-56.84756000
183.10546875,-59.62107000
183.15315247,-63.25175000
183.20083618,-63.93177000
183.24851990,-56.84113000
183.29620361,-56.23281000
183.34388733,-57.65141000
183.39157104,-64.21622000
183.43925476,-67.96928000
183.48693848,-58.99150000
183.53462219,-63.39945000
183.58230591,-56.08966000
183.62998962,-54.23328000
183.67767334,-61.59755000
183.72535706,-55.30675000
183.77304077,-57.18974000
183.82072449,-53.27171000
183.86840820,-56.64952000
183.91609192,-55.87164000
183.96377563,-53.07043000
184.01145935,-54.59686000
184.05914307,-55.02799000
184.10682678,-53.96869000
184.15451050,-58.39872000
184.20219421,-59.92253000
184.24987793,-61.08825000
184.29756165,-56.30451000
184.34524536,-51.74015000
184.39292908,-51.10603000
184.44061279,-50.73700000
184.48829651,-51.79453000
184.53598022,-51.14155000
184.58366394,-50.36705000
184.63134766,-57.68787000
184.67903137,-59.01793000
184.72671509,-54.70107000
184.77439880,-57.73037000
184.82208252,-59.12110000
184.86976624,-55.91180000
184.91744995,-56.84228000
184.96513367,-67.07267000
185.01281738,-59.52646000
185.06050110,-55.29079000
185.10818481,-58.73768000
185.15586853,-58.30267000
185.20355225,-57.74886000
185.25123596,-54.17507000
185.29891968,-54.45015000
185.34660339,-56.58359000
185.39428711,-58.10209000
185.44197083,-55.91466000
185.48965454,-58.34007000
185.53733826,-66.22079000
185.58502197,-55.12379000
185.63270569,-53.39635000
185.68038940,-52.28638000
185.72807312,-51.78104000
185.77575684,-52.62526000
185.82344055,-56.34240000
185.87112427,-55.19732000
185.91880798,-55.26577000
185.96649170,-64.85339000
186.01417542,-63.91733000
186.06185913,-60.83916000
186.10954285,-58.30826000
186.15722656,-58.10487000
186.20491028,-57.61419000
186.25259399,-61.32046000
186.30027771,-64.45483000
186.34796143,-59.98392000
186.39564514,-55.50834000
186.44332886,-55.34240000
186.49101257,-66.00783000
186.53869629,-57.46176000
186.58638000,-55.54024000
186.63406372,-56.56944000
186.68174744,-52.09586000
186.72943115,-54.99886000
186.77711487,-63.29640000
186.82479858,-56.89853000
186.87248230,-54.99183000
186.92016602,-54.38667000
186.96784973,-59.50556000
187.01553345,-53.47810000
187.06321716,-51.08581000
187.11090088,-54.48574000
187.15858459,-56.17445000
187.20626831,-52.28024000
187.25395203,-54.15095000
187.30163574,-58.69716000
187.34931946,-53.58118000
187.39700317,-57.16444000
187.44468689,-63.35088000
187.49237061,-57.31938000
187.54005432,-66.85314000
187.58773804,-81.07649000
187.63542175,-57.38912000
187.68310547,-49.00022000
187.73078918,-49.85336000
187.77847290,-59.84196000
187.82615662,-74.02496000
187.87384033,-67.24522000
187.92152405,-84.02398000
187.96920776,-60.56863000
188.01689148,-57.99390000
188.06457520,-62.54499000
188.11225891,-77.63459000
188.15994263,-61.81021000
188.20762634,-57.98551000
188.25531006,-57.81129000
188.30299377,-57.08193000
188.35067749,-58.72866000
188.39836121,-62.18028000
188.44604492,-66.91209000
188.49372864,-59.94241000
188.54141235,-64.20521000
188.58909607,-68.45769000
188.63677979,-67.09515000
188.68446350,-67.10660000
188.73214722,-60.11355000
188.77983093,-65.81895000
188.82751465,-65.58447000
188.87519836,-62.06540000
188.92288208,-57.63501000
188.97056580,-64.00640000
189.01824951,-63.94019000
189.06593323,-57.41232000
189.11361694,-54.94061000
189.16130066,-53.89172000
189.20898438,-58.90917000
189.25666809,-61.62426000
189.30435181,-66.40594000
189.35203552,-62.26028000
189.39971924,-58.49893000
189.44740295,-57.29269000
189.49508667,-55.41732000
189.54277039,-52.90734000
189.59045410,-52.51891000
189.63813782,-59.03453000
189.68582153,-62.01595000
189.73350525,-56.30957000
189.78118896,-57.72268000
189.82887268,-60.85657000
189.87655640,-57.57429000
189.92424011,-53.52443000
189.97192383,-54.36185000
190.01960754,-57.42090000
190.06729126,-62.15750000
190.11497498,-60.75264000
190.16265869,-59.24478000
190.21034241,-52.91214000
190.25802612,-51.89886000
190.30570984,-52.60314000
190.35339355,-53.20349000
190.40107727,-58.02710000
190.44876099,-71.67840000
190.49644470,-59.44358000
190.54412842,-54.07684000
190.59181213,-54.32156000
190.63949585,-70.04086000
190.68717957,-57.18823000
190.73486328,-57.29732000
190.78254700,-64.68176000
190.83023071,-64.90149000
190.87791443,-59.64321000
190.92559814,-58.07256000
190.97328186,-62.17485000
191.02096558,-59.12225000
191.06864929,-57.43423000
191.11633301,-51.30230000
191.16401672,-52.79364000
191.21170044,-58.53075000
191.25938416,-56.78371000
191.30706787,-55.60030000
191.35475159,-56.11106000
191.40243530,-55.31929000
191.45011902,-65.24561000
191.49780273,-57.26105000
191.54548645,-52.86993000
191.59317017,-50.87902000
191.64085388,-55.87988000
191.68853760,-65.84244000
191.73622131,-57.93178000
191.78390503,-57.03082000
191.83158875,-64.66109000
191.87927246,-62.12965000
191.92695618,-59.75679000
191.97463989,-60.12780000
192.02232361,-58.36195000
192.07000732,-60.00843000
192.11769104,-56.24306000
192.16537476,-54.67801000
192.21305847,-60.95879000
192.26074219,-61.71078000
192.30842590,-57.24127000
192.35610962,-62.08783000
192.40379333,-60.81079000
192.45147705,-58.91499000
192.49916077,-68.74755000
192.54684448,-57.29253000
192.59452820,-51.44740000
192.64221191,-49.32693000
192.68989563,-50.33858000
192.73757935,-57.39403000
192.78526306,-61.48803000
192.83294678,-63.50566000
192.88063049,-58.90722000
192.92831421,-57.51171000
192.97599792,-62.24758000
193.02368164,-67.15609000
193.07136536,-60.68715000
193.11904907,-61.48887000
193.16673279,-61.90855000
193.21441650,-57.32233000
193.26210022,-55.19497000
193.30978394,-55.40756000
193.35746765,-59.90330000
193.40515137,-65.60147000
193.45283508,-62.46422000
193.50051880,-58.19100000
193.54820251,-58.06969000
193.59588623,-59.63242000
193.64356995,-59.58432000
193.69125366,-58.34839000
193.73893738,-59.08373000
193.78662109,-57.28352000
193.83430481,-56.77708000
193.88198853,-56.58992000
193.92967224,-54.33053000
193.97735596,-61.36432000
194.02503967,-68.15626000
194.07272339,-63.81908000
194.12040710,-61.33547000
194.16809082,-59.44046000
194.21577454,-53.85566000
194.26345825,-53.32191000
194.31114197,-63.11470000
194.35882568,-66.29467000
194.40650940,-55.55842000
194.45419312,-54.97684000
194.50187683,-65.20152000
194.54956055,-59.10156000
194.59724426,-55.31262000
194.64492798,-53.65269000
194.69261169,-53.28493000
194.74029541,-57.01778000
194.78797913,-55.04590000
194.83566284,-55.17847000
194.88334656,-60.10386000
194.93103027,-60.47430000
194.97871399,-55.92173000
195.02639771,-54.17759000
195.07408142,-62.84681000
195.12176514,-59.92563000
195.16944885,-55.35244000
195.21713257,-58.14794000
195.26481628,-66.27301000
