Frequency,Channel B
(kHz),(dBu)

0.00000000,-23.52648000
0.04768372,-31.54308000
0.09536743,-51.30206000
0.14305115,-45.44318000
0.19073486,-71.10316000
0.23841858,-60.05341000
0.28610229,-85.72169000
0.33378601,-52.43788000
0.38146973,-50.16958000
0.42915344,-54.92840000
0.47683716,-54.81970000
0.52452087,-56.02874000
0.57220459,-55.94032000
0.61988831,-52.37744000
0.66757202,-54.30420000
0.71525574,-54.81778000
0.76293945,-56.37916000
0.81062317,-53.51139000
0.85830688,-50.16231000
0.90599060,-50.23163000
0.95367432,-57.45752000
1.00135803,-53.65852000
1.04904175,-58.05725000
1.09672546,-58.90335000
1.14440918,-58.76385000
1.19209290,-68.49252000
1.23977661,-52.86110000
1.28746033,-50.51429000
1.33514404,-55.15488000
1.38282776,-55.82328000
1.43051147,-52.53323000
1.47819519,-57.10632000
1.52587891,-61.23808000
1.57356262,-58.15099000
1.62124634,-60.12743000
1.66893005,-53.43527000
1.71661377,-58.10108000
1.76429749,-58.63139000
1.81198120,-60.84088000
1.85966492,-53.58080000
1.90734863,-50.74329000
1.95503235,-50.75835000
2.00271606,-51.30975000
2.05039978,-64.44879000
2.09808350,-59.23381000
2.14576721,-55.80372000
2.19345093,-53.70299000
2.24113464,-59.62612000
2.28881836,-61.83806000
2.33650208,-58.63982000
2.38418579,-53.92383000
2.43186951,-53.00231000
2.47955322,-55.84861000
2.52723694,-53.78441000
2.57492065,-47.87287000
2.62260437,-53.34118000
2.67028809,-54.27342000
2.71797180,-52.68488000
2.76565552,-59.79508000
2.81333923,-48.98830000
2.86102295,-47.91333000
2.90870667,-52.10384000
2.95639038,-56.23279000
3.00407410,-58.83399000
3.05175781,-68.36367000
3.09944153,-54.88731000
3.14712524,-50.81385000
3.19480896,-50.78419000
3.24249268,-46.73129000
3.29017639,-47.00283000
3.33786011,-48.64237000
3.38554382,-47.34480000
3.43322754,-49.81258000
3.48091125,-52.03197000
3.52859497,-51.59992000
3.57627869,-59.30025000
3.62396240,-50.87880000
3.67164612,-59.52402000
3.71932983,-58.48400000
3.76701355,-52.57514000
3.81469727,-54.90273000
3.86238098,-53.99377000
3.91006470,-57.43182000
3.95774841,-59.60109000
4.00543213,-49.32022000
4.05311584,-54.19749000
4.10079956,-56.92757000
4.14848328,-55.96983000
4.19616699,-58.37887000
4.24385071,-59.82899000
4.29153442,-53.27124000
4.33921814,-66.61918000
4.38690186,-50.26776000
4.43458557,-54.09066000
4.48226929,-51.13993000
4.52995300,-57.59312000
4.57763672,-52.47364000
4.62532043,-50.51953000
4.67300415,-55.32912000
4.72068787,-50.22890000
4.76837158,-54.78534000
4.81605530,-57.38784000
4.86373901,-52.50670000
4.91142273,-74.20809000
4.95910645,-51.05609000
5.00679016,-52.96146000
5.05447388,-55.29401000
5.10215759,-58.91592000
5.14984131,-55.79237000
5.19752502,-44.71722000
5.24520874,-44.43774000
5.29289246,-54.11869000
5.34057617,-48.50332000
5.38825989,-56.47983000
5.43594360,-54.41661000
5.48362732,-50.63627000
5.53131104,-55.26756000
5.57899475,-47.56782000
5.62667847,-49.10458000
5.67436218,-65.50829000
5.72204590,-43.25808000
5.76972961,-52.22952000
5.81741333,-44.34705000
5.86509705,-45.93895000
5.91278076,-50.73330000
5.96046448,-44.24153000
6.00814819,-48.28586000
6.05583191,-47.68316000
6.10351563,-43.29004000
6.15119934,-41.42830000
6.19888306,-45.50022000
6.24656677,-40.24220000
6.29425049,-41.78611000
6.34193420,-38.61080000
6.38961792,-40.73402000
6.43730164,-36.24773000
6.48498535,-33.43840000
6.53266907,-35.54222000
6.58035278,-28.62786000
6.62803650,-27.15625000
6.67572021,-18.63265000
6.72340393,-10.70181000
6.77108765,-5.83614000
6.81877136,-5.89091700
6.86645508,-10.81422000
6.91413879,-18.47109000
6.96182251,-25.82707000
7.00950623,-27.26756000
7.05718994,-31.40761000
7.10487366,-30.70448000
7.15255737,-33.35380000
7.20024109,-33.47150000
7.24792480,-32.85353000
7.29560852,-34.23886000
7.34329224,-34.49857000
7.39097595,-34.48423000
7.43865967,-35.82809000
7.48634338,-34.25590000
7.53402710,-33.77171000
7.58171082,-35.92133000
7.62939453,-33.36840000
7.67707825,-33.73130000
7.72476196,-33.93566000
7.77244568,-32.07207000
7.82012939,-31.55323000
7.86781311,-29.99600000
7.91549683,-28.57593000
7.96318054,-25.27749000
8.01086426,-21.51992000
8.05854797,-16.67715000
8.10623169,-13.04763000
8.15391541,-12.26901000
8.20159912,-14.92561000
8.24928284,-19.93927000
8.29696655,-24.92950000
8.34465027,-29.09861000
8.39233398,-32.68643000
8.44001770,-34.30719000
8.48770142,-36.69239000
8.53538513,-36.54686000
8.58306885,-39.70543000
8.63075256,-40.56593000
8.67843628,-40.75206000
8.72612000,-43.79309000
8.77380371,-40.84612000
8.82148743,-50.56211000
8.86917114,-43.93024000
8.91685486,-43.11569000
8.96453857,-51.22112000
9.01222229,-47.67138000
9.05990601,-47.10814000
9.10758972,-46.21780000
9.15527344,-51.95773000
9.20295715,-49.23541000
9.25064087,-44.71554000
9.29832458,-59.73712000
9.34600830,-52.21912000
9.39369202,-53.14061000
9.44137573,-54.46368000
9.48905945,-48.31623000
9.53674316,-53.30959000
9.58442688,-54.61644000
9.63211060,-49.12922000
9.67979431,-50.11469000
9.72747803,-56.73962000
9.77516174,-51.28069000
9.82284546,-55.65800000
9.87052917,-53.46037000
9.91821289,-56.45995000
9.96589661,-49.19897000
10.01358032,-47.44569000
10.06126404,-54.23253000
10.10894775,-51.87524000
10.15663147,-48.79894000
10.20431519,-55.60918000
10.25199890,-52.60639000
10.29968262,-56.68865000
10.34736633,-57.15738000
10.39505005,-45.52238000
10.44273376,-47.37946000
10.49041748,-51.04235000
10.53810120,-54.20741000
10.58578491,-61.72617000
10.63346863,-57.78511000
10.68115234,-50.76240000
10.72883606,-56.30569000
10.77651978,-49.61159000
10.82420349,-48.85110000
10.87188721,-58.37475000
10.91957092,-60.08871000
10.96725464,-50.62523000
11.01493835,-63.39458000
11.06262207,-61.16194000
11.11030579,-59.83819000
11.15798950,-55.13743000
11.20567322,-54.98812000
11.25335693,-54.24727000
11.30104065,-55.04379000
11.34872437,-56.29451000
11.39640808,-51.87538000
11.44409180,-49.52888000
11.49177551,-47.85832000
11.53945923,-70.23268000
11.58714294,-53.19697000
11.63482666,-54.95568000
11.68251038,-53.56002000
11.73019409,-54.68300000
11.77787781,-50.34294000
11.82556152,-51.69868000
11.87324524,-51.14399000
11.92092896,-59.75012000
11.96861267,-53.35765000
12.01629639,-56.68800000
12.06398010,-49.53733000
12.11166382,-44.47202000
12.15934753,-48.65434000
12.20703125,-59.13460000
12.25471497,-65.26814000
12.30239868,-58.63457000
12.35008240,-64.70610000
12.39776611,-54.15726000
12.44544983,-47.43906000
12.49313354,-49.96029000
12.54081726,-49.33812000
12.58850098,-53.31560000
12.63618469,-53.79249000
12.68386841,-54.60873000
12.73155212,-54.63585000
12.77923584,-55.81887000
12.82691956,-56.42286000
12.87460327,-59.43586000
12.92228699,-55.29513000
12.96997070,-58.35234000
13.01765442,-58.83929000
13.06533813,-52.93507000
13.11302185,-53.32163000
13.16070557,-51.62323000
13.20838928,-48.33977000
13.25607300,-49.15965000
13.30375671,-50.65307000
13.35144043,-56.40422000
13.39912415,-49.06990000
13.44680786,-44.76038000
13.49449158,-48.07782000
13.54217529,-47.94786000
13.58985901,-43.26536000
13.63754272,-43.03923000
13.68522644,-43.44061000
13.73291016,-44.56118000
13.78059387,-49.54701000
13.82827759,-57.06211000
13.87596130,-55.39672000
13.92364502,-51.08612000
13.97132874,-57.41040000
14.01901245,-61.02295000
14.06669617,-59.24971000
14.11437988,-49.98030000
14.16206360,-60.50600000
14.20974731,-50.56804000
14.25743103,-48.77664000
14.30511475,-51.70572000
14.35279846,-49.92688000
14.40048218,-50.88194000
14.44816589,-61.16276000
14.49584961,-53.83079000
14.54353333,-55.96255000
14.59121704,-54.79934000
14.63890076,-60.24718000
14.68658447,-53.34838000
14.73426819,-47.38018000
14.78195190,-46.24245000
14.82963562,-47.95300000
14.87731934,-53.98351000
14.92500305,-51.88126000
14.97268677,-49.90844000
15.02037048,-49.99504000
15.06805420,-47.51369000
15.11573792,-47.99726000
15.16342163,-53.13486000
15.21110535,-60.32198000
15.25878906,-70.75137000
15.30647278,-56.70340000
15.35415649,-67.42710000
15.40184021,-65.75555000
15.44952393,-62.07021000
15.49720764,-55.30830000
15.54489136,-48.53650000
15.59257507,-52.18033000
15.64025879,-56.14582000
15.68794250,-57.36602000
15.73562622,-52.32042000
15.78330994,-55.41275000
15.83099365,-55.57948000
15.87867737,-53.49581000
15.92636108,-59.20505000
15.97404480,-57.72196000
16.02172852,-59.79436000
16.06941223,-59.36359000
16.11709595,-73.77913000
16.16477966,-59.92210000
16.21246338,-53.84813000
16.26014709,-53.41483000
16.30783081,-58.13152000
16.35551453,-60.46543000
16.40319824,-50.31840000
16.45088196,-47.26764000
16.49856567,-49.32664000
16.54624939,-54.09480000
16.59393311,-69.91304000
16.64161682,-62.77139000
16.68930054,-72.63089000
16.73698425,-55.48438000
16.78466797,-57.92530000
16.83235168,-59.60125000
16.88003540,-54.48231000
16.92771912,-60.97965000
16.97540283,-52.81769000
17.02308655,-47.55200000
17.07077026,-45.16772000
17.11845398,-47.76704000
17.16613770,-55.72256000
17.21382141,-55.03515000
17.26150513,-53.43441000
17.30918884,-51.67795000
17.35687256,-51.24493000
17.40455627,-52.51521000
17.45223999,-57.10025000
17.49992371,-55.22482000
17.54760742,-48.08025000
17.59529114,-46.59066000
17.64297485,-49.71040000
17.69065857,-60.10032000
17.73834229,-56.12668000
17.78602600,-53.33303000
17.83370972,-50.91309000
17.88139343,-59.64870000
17.92907715,-53.15903000
17.97676086,-61.58641000
18.02444458,-54.38229000
18.07212830,-48.87841000
18.11981201,-52.68258000
18.16749573,-53.76890000
18.21517944,-49.92638000
18.26286316,-51.65524000
18.31054688,-58.58940000
18.35823059,-63.95689000
18.40591431,-60.40813000
18.45359802,-57.67903000
18.50128174,-49.51025000
18.54896545,-49.61997000
18.59664917,-57.54894000
18.64433289,-54.81622000
18.69201660,-49.91428000
18.73970032,-49.66463000
18.78738403,-53.52197000
18.83506775,-80.26010000
18.88275146,-55.66038000
18.93043518,-54.22027000
18.97811890,-58.25558000
19.02580261,-56.22970000
19.07348633,-49.20677000
19.12117004,-48.52988000
19.16885376,-53.61426000
19.21653748,-58.27375000
19.26422119,-55.77744000
19.31190491,-50.07372000
19.35958862,-53.19147000
19.40727234,-54.55658000
19.45495605,-49.18356000
19.50263977,-49.05808000
19.55032349,-51.84206000
19.59800720,-59.13927000
19.64569092,-63.69231000
19.69337463,-60.16203000
19.74105835,-56.90181000
19.78874207,-53.13483000
19.83642578,-63.98046000
19.88410950,-54.05196000
19.93179321,-51.83097000
19.97947693,-50.67264000
20.02716064,-52.26552000
20.07484436,-50.84404000
20.12252808,-52.59735000
20.17021179,-60.91168000
20.21789551,-53.90995000
20.26557922,-47.92439000
20.31326294,-48.70564000
20.36094666,-51.61746000
20.40863037,-48.56132000
20.45631409,-46.59632000
20.50399780,-51.10114000
20.55168152,-48.18383000
20.59936523,-45.01854000
20.64704895,-45.47728000
20.69473267,-47.21299000
20.74241638,-49.71438000
20.79010010,-48.35307000
20.83778381,-48.90546000
20.88546753,-50.70700000
20.93315125,-56.44049000
20.98083496,-49.86904000
21.02851868,-49.97363000
21.07620239,-57.61953000
21.12388611,-54.04163000
21.17156982,-48.51586000
21.21925354,-50.21195000
21.26693726,-52.98130000
21.31462097,-52.28244000
21.36230469,-54.27497000
21.40998840,-55.88437000
21.45767212,-60.81890000
21.50535583,-58.39066000
21.55303955,-54.09094000
21.60072327,-55.42828000
21.64840698,-47.77885000
21.69609070,-47.49872000
21.74377441,-50.66436000
21.79145813,-55.13969000
21.83914185,-66.24024000
21.88682556,-65.97079000
21.93450928,-67.21303000
21.98219299,-62.50080000
22.02987671,-57.63312000
22.07756042,-59.18507000
22.12524414,-56.24080000
22.17292786,-49.19104000
22.22061157,-47.24749000
22.26829529,-50.53739000
22.31597900,-49.61543000
22.36366272,-47.24763000
22.41134644,-49.01558000
22.45903015,-59.45235000
22.50671387,-61.43908000
22.55439758,-51.46543000
22.60208130,-51.64833000
22.64976501,-64.07996000
22.69744873,-71.44576000
22.74513245,-73.89983000
22.79281616,-57.77008000
22.84049988,-52.41342000
22.88818359,-59.96875000
22.93586731,-61.54512000
22.98355103,-55.17936000
23.03123474,-53.71797000
23.07891846,-52.27901000
23.12660217,-55.51419000
23.17428589,-83.95397000
23.22196960,-68.98362000
23.26965332,-55.26603000
23.31733704,-54.11814000
23.36502075,-72.66772000
23.41270447,-56.47867000
23.46038818,-57.34002000
23.50807190,-68.48129000
23.55575562,-66.54363000
23.60343933,-59.78058000
23.65112305,-58.11423000
23.69880676,-55.22274000
23.74649048,-51.45967000
23.79417419,-49.98892000
23.84185791,-50.27975000
23.88954163,-51.27003000
23.93722534,-50.26325000
23.98490906,-49.66249000
24.03259277,-54.24403000
24.08027649,-58.57593000
24.12796021,-55.63101000
24.17564392,-54.80495000
24.22332764,-55.16879000
24.27101135,-61.69960000
24.31869507,-54.02380000
24.36637878,-51.79155000
24.41406250,-52.28194000
24.46174622,-65.11727000
24.50942993,-59.22378000
24.55711365,-56.94907000
24.60479736,-51.54789000
24.65248108,-48.46489000
24.70016479,-48.93834000
24.74784851,-51.99458000
24.79553223,-55.34395000
24.84321594,-58.25624000
24.89089966,-55.03249000
24.93858337,-51.31116000
24.98626709,-49.24876000
25.03395081,-55.53574000
25.08163452,-65.32877000
25.12931824,-56.40917000
25.17700195,-53.61395000
25.22468567,-55.71452000
25.27236938,-57.05509000
25.32005310,-58.61926000
25.36773682,-56.28205000
25.41542053,-53.50371000
25.46310425,-52.00665000
25.51078796,-55.87519000
25.55847168,-61.66739000
25.60615540,-55.59772000
25.65383911,-53.14978000
25.70152283,-53.82897000
25.74920654,-55.90675000
25.79689026,-55.14664000
25.84457397,-52.59216000
25.89225769,-49.49051000
25.93994141,-47.78931000
25.98762512,-50.23274000
26.03530884,-54.77109000
26.08299255,-56.29356000
26.13067627,-57.97378000
26.17835999,-59.82795000
26.22604370,-62.57995000
26.27372742,-56.14629000
26.32141113,-50.90842000
26.36909485,-50.69460000
26.41677856,-55.36703000
26.46446228,-56.01109000
26.51214600,-50.31505000
26.55982971,-48.84974000
26.60751343,-53.98891000
26.65519714,-53.68301000
26.70288086,-50.39886000
26.75056458,-51.26984000
26.79824829,-52.12299000
26.84593201,-52.63525000
26.89361572,-59.46535000
26.94129944,-60.31460000
26.98898315,-52.98880000
27.03666687,-46.21189000
27.08435059,-43.59387000
27.13203430,-43.70684000
27.17971802,-49.45290000
27.22740173,-53.72538000
27.27508545,-48.13550000
27.32276917,-50.01936000
27.37045288,-51.44215000
27.41813660,-53.98905000
27.46582031,-68.00507000
27.51350403,-64.40417000
27.56118774,-60.06226000
27.60887146,-53.78728000
27.65655518,-55.73293000
27.70423889,-53.18269000
27.75192261,-49.33288000
27.79960632,-48.35478000
27.84729004,-51.22121000
27.89497375,-62.67889000
27.94265747,-55.09657000
27.99034119,-54.05083000
28.03802490,-59.67888000
28.08570862,-60.44155000
28.13339233,-60.66008000
28.18107605,-53.76131000
28.22875977,-58.07893000
28.27644348,-51.73512000
28.32412720,-46.55278000
28.37181091,-45.94482000
28.41949463,-51.33479000
28.46717834,-54.88465000
28.51486206,-53.75120000
28.56254578,-54.74316000
28.61022949,-55.46416000
28.65791321,-49.36994000
28.70559692,-48.13186000
28.75328064,-50.79689000
28.80096436,-52.94100000
28.84864807,-51.07616000
28.89633179,-51.73347000
28.94401550,-51.38090000
28.99169922,-52.17654000
29.03938293,-55.53126000
29.08706665,-52.87326000
29.13475037,-53.08587000
29.18243408,-56.77496000
29.23011780,-66.34870000
29.27780151,-52.52499000
29.32548523,-51.42019000
29.37316895,-63.50938000
29.42085266,-52.10705000
29.46853638,-53.29971000
29.51622009,-69.57603000
29.56390381,-53.11186000
29.61158752,-51.06034000
29.65927124,-50.30655000
29.70695496,-51.31846000
29.75463867,-57.96179000
29.80232239,-53.18736000
29.85000610,-53.35651000
29.89768982,-56.59561000
29.94537354,-49.97515000
29.99305725,-54.49533000
30.04074097,-55.23671000
30.08842468,-58.68777000
30.13610840,-67.29377000
30.18379211,-54.08947000
30.23147583,-50.41032000
30.27915955,-56.27142000
30.32684326,-56.36132000
30.37452698,-53.26082000
30.42221069,-61.32731000
30.46989441,-49.76961000
30.51757813,-49.72680000
30.56526184,-59.78017000
30.61294556,-57.64138000
30.66062927,-70.09287000
30.70831299,-57.87748000
30.75599670,-52.86137000
30.80368042,-58.57388000
30.85136414,-56.87195000
30.89904785,-57.72489000
30.94673157,-60.08665000
30.99441528,-56.42363000
31.04209900,-50.29249000
31.08978271,-49.99104000
31.13746643,-56.81554000
31.18515015,-68.56414000
31.23283386,-60.78064000
31.28051758,-55.60276000
31.32820129,-53.57938000
31.37588501,-58.89218000
31.42356873,-61.18798000
31.47125244,-52.86262000
31.51893616,-53.14661000
31.56661987,-55.37344000
31.61430359,-51.50728000
31.66198730,-47.28277000
31.70967102,-53.13674000
31.75735474,-61.55289000
31.80503845,-52.11443000
31.85272217,-58.10933000
31.90040588,-55.94852000
31.94808960,-53.49180000
31.99577332,-71.28142000
32.04345703,-56.67637000
32.09114075,-55.36415000
32.13882446,-57.20290000
32.18650818,-63.45126000
32.23419189,-62.40331000
32.28187561,-55.39375000
32.32955933,-52.97005000
32.37724304,-57.21944000
32.42492676,-55.57635000
32.47261047,-50.27945000
32.52029419,-52.32456000
32.56797791,-62.31748000
32.61566162,-51.64129000
32.66334534,-52.26435000
32.71102905,-78.02803000
32.75871277,-57.63774000
32.80639648,-56.41098000
32.85408020,-55.79937000
32.90176392,-55.46189000
32.94944763,-51.07234000
32.99713135,-49.18000000
33.04481506,-53.43405000
33.09249878,-61.39857000
33.14018250,-56.79616000
33.18786621,-50.72762000
33.23554993,-49.37347000
33.28323364,-49.90870000
33.33091736,-48.43347000
33.37860107,-48.94954000
33.42628479,-56.16611000
33.47396851,-60.21809000
33.52165222,-54.74995000
33.56933594,-57.14386000
33.61701965,-63.06667000
33.66470337,-61.78212000
33.71238708,-54.55722000
33.76007080,-50.04200000
33.80775452,-48.68790000
33.85543823,-49.43690000
33.90312195,-48.36630000
33.95080566,-49.55428000
33.99848938,-55.35413000
34.04617310,-57.03743000
34.09385681,-52.67846000
34.14154053,-53.23578000
34.18922424,-55.14278000
34.23690796,-55.63261000
34.28459167,-56.69441000
34.33227539,-56.33226000
34.37995911,-53.77396000
34.42764282,-51.65442000
34.47532654,-52.34514000
34.52301025,-66.69710000
34.57069397,-52.91262000
34.61837769,-52.60314000
34.66606140,-62.71734000
34.71374512,-51.41506000
34.76142883,-49.58656000
34.80911255,-49.61706000
34.85679626,-48.51350000
34.90447998,-50.08411000
34.95216370,-57.70426000
34.99984741,-63.98534000
35.04753113,-54.37937000
35.09521484,-56.09917000
35.14289856,-58.34807000
35.19058228,-56.43736000
35.23826599,-52.75471000
35.28594971,-52.60422000
35.33363342,-56.35992000
35.38131714,-53.93732000
35.42900085,-53.69437000
35.47668457,-55.17028000
35.52436829,-51.54312000
35.57205200,-55.67015000
35.61973572,-57.26495000
35.66741943,-57.18391000
35.71510315,-59.50798000
35.76278687,-53.93650000
35.81047058,-50.12962000
35.85815430,-52.26422000
35.90583801,-56.54179000
35.95352173,-58.92221000
36.00120544,-57.96845000
36.04888916,-57.30421000
36.09657288,-54.86470000
36.14425659,-51.23413000
36.19194031,-57.06614000
36.23962402,-63.98272000
36.28730774,-59.86681000
36.33499146,-54.78716000
36.38267517,-51.92774000
36.43035889,-51.06141000
36.47804260,-56.53194000
36.52572632,-70.27757000
36.57341003,-60.39465000
36.62109375,-71.96276000
36.66877747,-56.69635000
36.71646118,-52.80937000
36.76414490,-53.91648000
36.81182861,-53.30677000
36.85951233,-53.44939000
36.90719604,-51.71268000
36.95487976,-53.52012000
37.00256348,-53.74377000
37.05024719,-52.21909000
37.09793091,-51.44752000
37.14561462,-52.91648000
37.19329834,-59.31435000
37.24098206,-52.48996000
37.28866577,-49.78710000
37.33634949,-51.30318000
37.38403320,-55.60221000
37.43171692,-48.21864000
37.47940063,-44.86713000
37.52708435,-47.04822000
37.57476807,-51.18923000
37.62245178,-58.65123000
37.67013550,-54.75938000
37.71781921,-50.70064000
37.76550293,-53.82883000
37.81318665,-53.89456000
37.86087036,-55.98024000
37.90855408,-53.18585000
37.95623779,-51.16140000
38.00392151,-48.41682000
38.05160522,-47.56315000
38.09928894,-52.92012000
38.14697266,-65.49556000
38.19465637,-63.96856000
38.24234009,-63.30560000
38.29002380,-61.07298000
38.33770752,-56.21069000
38.38539124,-49.58610000
38.43307495,-46.35812000
38.48075867,-47.58281000
38.52844238,-55.13271000
38.57612610,-57.64532000
38.62380981,-57.34009000
38.67149353,-63.70953000
38.71917725,-56.06403000
38.76686096,-53.19376000
38.81454468,-50.77744000
38.86222839,-57.33288000
38.90991211,-60.38411000
38.95759583,-66.88543000
39.00527954,-62.56348000
39.05296326,-52.75905000
39.10064697,-56.48949000
39.14833069,-55.30507000
39.19601440,-50.30066000
39.24369812,-50.77270000
39.29138184,-48.84125000
39.33906555,-48.36630000
39.38674927,-50.81478000
39.43443298,-51.68472000
39.48211670,-51.23593000
39.52980042,-48.96213000
39.57748413,-49.05573000
39.62516785,-50.30165000
39.67285156,-47.59761000
39.72053528,-48.52234000
39.76821899,-55.08286000
39.81590271,-62.30995000
39.86358643,-62.87449000
39.91127014,-52.42102000
39.95895386,-50.29771000
40.00663757,-55.83054000
40.05432129,-57.40505000
40.10200500,-58.16790000
40.14968872,-57.21468000
40.19737244,-56.74714000
40.24505615,-60.59597000
40.29273987,-51.20927000
40.34042358,-45.89722000
40.38810730,-46.81948000
40.43579102,-51.70341000
40.48347473,-49.82452000
40.53115845,-46.89515000
40.57884216,-51.36697000
40.62652588,-54.40683000
40.67420959,-50.73040000
40.72189331,-49.13124000
40.76957703,-52.04628000
40.81726074,-53.60611000
40.86494446,-55.24780000
40.91262817,-55.78863000
40.96031189,-63.71640000
41.00799561,-59.43547000
41.05567932,-55.20433000
41.10336304,-59.57189000
41.15104675,-60.77240000
41.19873047,-56.32132000
41.24641418,-57.10743000
41.29409790,-56.58072000
41.34178162,-57.74327000
41.38946533,-58.44891000
41.43714905,-53.63239000
41.48483276,-50.69836000
41.53251648,-54.04100000
41.58020020,-71.04769000
41.62788391,-60.70243000
41.67556763,-56.06954000
41.72325134,-50.36808000
41.77093506,-50.01347000
41.81861877,-56.31440000
41.86630249,-49.87766000
41.91398621,-47.84452000
41.96166992,-50.08966000
42.00935364,-50.89037000
42.05703735,-49.26697000
42.10472107,-48.57850000
42.15240479,-47.32730000
42.20008850,-46.30832000
42.24777222,-48.81543000
42.29545593,-52.55207000
42.34313965,-57.18927000
42.39082336,-52.63111000
42.43850708,-57.77996000
42.48619080,-55.40703000
42.53387451,-57.81368000
42.58155823,-57.80619000
42.62924194,-53.33840000
42.67692566,-52.86982000
42.72460938,-50.78305000
42.77229309,-48.94073000
42.81997681,-50.10474000
42.86766052,-57.91011000
42.91534424,-56.90938000
42.96302795,-55.50534000
43.01071167,-57.52486000
43.05839539,-63.74627000
43.10607910,-60.88689000
43.15376282,-66.10156000
43.20144653,-62.90436000
43.24913025,-55.57137000
43.29681396,-56.73990000
43.34449768,-73.84250000
43.39218140,-75.82424000
43.43986511,-66.80292000
43.48754883,-60.54128000
43.53523254,-73.24004000
43.58291626,-58.02369000
43.63059998,-59.00811000
43.67828369,-68.04207000
43.72596741,-62.89353000
43.77365112,-57.73611000
43.82133484,-58.50113000
43.86901855,-70.26263000
43.91670227,-61.76604000
43.96438599,-60.65897000
44.01206970,-57.26828000
44.05975342,-58.49330000
44.10743713,-56.94351000
44.15512085,-49.64680000
44.20280457,-48.64973000
44.25048828,-51.02226000
44.29817200,-56.31092000
44.34585571,-74.30534000
44.39353943,-65.95040000
44.44122314,-59.25763000
44.48890686,-51.96933000
44.53659058,-50.62847000
44.58427429,-50.00797000
44.63195801,-53.88237000
44.67964172,-55.93568000
44.72732544,-58.61839000
44.77500916,-55.35416000
44.82269287,-64.63963000
44.87037659,-56.60084000
44.91806030,-52.80096000
44.96574402,-53.07498000
45.01342773,-50.33809000
45.06111145,-47.98996000
45.10879517,-50.06895000
45.15647888,-54.05773000
45.20416260,-54.57693000
45.25184631,-57.04326000
45.29953003,-60.15136000
45.34721375,-58.96577000
45.39489746,-66.38950000
45.44258118,-53.70234000
45.49026489,-49.54533000
45.53794861,-47.49722000
45.58563232,-48.30169000
45.63331604,-53.83819000
45.68099976,-60.16050000
45.72868347,-60.31407000
45.77636719,-69.17077000
45.82405090,-59.05680000
45.87173462,-58.53640000
45.91941833,-57.64588000
45.96710205,-55.92197000
46.01478577,-65.93318000
46.06246948,-58.48598000
46.11015320,-53.35662000
46.15783691,-53.76805000
46.20552063,-73.20345000
46.25320435,-67.02923000
46.30088806,-65.97348000
46.34857178,-59.54424000
46.39625549,-56.89194000
46.44393921,-53.26340000
46.49162292,-54.61438000
46.53930664,-55.18414000
46.58699036,-48.66047000
46.63467407,-55.94865000
46.68235779,-51.25134000
46.73004150,-48.26425000
46.77772522,-54.10236000
46.82540894,-56.87702000
46.87309265,-56.32129000
46.92077637,-60.45206000
46.96846008,-51.31356000
47.01614380,-47.46706000
47.06382751,-53.58185000
47.11151123,-60.21283000
47.15919495,-62.88567000
47.20687866,-65.64320000
47.25456238,-67.12716000
47.30224609,-58.99342000
47.34992981,-51.21862000
47.39761353,-46.99109000
47.44529724,-44.78873000
47.49298096,-46.27923000
47.54066467,-50.12380000
47.58834839,-54.01178000
47.63603210,-56.00183000
47.68371582,-54.40401000
47.73139954,-59.13465000
47.77908325,-53.32349000
47.82676697,-56.69743000
47.87445068,-58.53556000
47.92213440,-56.85040000
47.96981812,-59.06528000
48.01750183,-61.08768000
48.06518555,-53.97285000
48.11286926,-57.03247000
48.16055298,-81.73145000
48.20823669,-51.36729000
48.25592041,-49.28442000
48.30360413,-61.79611000
48.35128784,-54.74064000
48.39897156,-64.06165000
48.44665527,-57.19486000
48.49433899,-58.16072000
48.54202271,-54.79948000
48.58970642,-58.91103000
48.63739014,-61.03360000
48.68507385,-49.79535000
48.73275757,-45.90534000
48.78044128,-48.13633000
48.82812500,-58.72028000
48.87580872,-64.53883000
48.92349243,-53.38472000
48.97117615,-50.97784000
49.01885986,-51.90623000
49.06654358,-51.88408000
49.11422729,-54.25579000
49.16191101,-68.96682000
49.20959473,-58.47210000
49.25727844,-53.49476000
49.30496216,-55.36044000
49.35264587,-56.79163000
49.40032959,-53.16685000
49.44801331,-55.71237000
49.49569702,-61.47854000
49.54338074,-63.89673000
49.59106445,-55.40449000
49.63874817,-53.76264000
49.68643188,-60.89626000
49.73411560,-57.67025000
49.78179932,-67.14159000
49.82948303,-53.35047000
49.87716675,-53.35293000
49.92485046,-47.82278000
49.97253418,-46.13985000
50.02021790,-49.08855000
50.06790161,-52.37113000
50.11558533,-49.85073000
50.16326904,-52.09547000
50.21095276,-58.26603000
50.25863647,-74.96200000
50.30632019,-57.77781000
50.35400391,-53.38314000
50.40168762,-57.03848000
50.44937134,-66.15563000
50.49705505,-60.67970000
50.54473877,-59.85881000
50.59242249,-59.00761000
50.64010620,-60.67075000
50.68778992,-57.34639000
50.73547363,-59.51683000
50.78315735,-50.86273000
50.83084106,-47.19387000
50.87852478,-49.14006000
50.92620850,-55.31593000
50.97389221,-67.97366000
51.02157593,-59.02380000
51.06925964,-50.67709000
51.11694336,-53.26206000
51.16462708,-54.99247000
51.21231079,-50.11100000
51.25999451,-51.34753000
51.30767822,-52.19730000
51.35536194,-55.61781000
51.40304565,-59.86557000
51.45072937,-59.51908000
51.49841309,-71.17797000
51.54609680,-56.96184000
51.59378052,-48.29519000
51.64146423,-46.51913000
51.68914795,-48.86856000
51.73683167,-54.25444000
51.78451538,-56.88049000
51.83219910,-58.43793000
51.87988281,-60.81808000
51.92756653,-62.24949000
51.97525024,-60.11911000
52.02293396,-72.44096000
52.07061768,-58.17270000
52.11830139,-56.27793000
52.16598511,-67.14391000
52.21366882,-63.46511000
52.26135254,-55.73547000
52.30903625,-49.87286000
52.35671997,-51.56255000
52.40440369,-62.94632000
52.45208740,-52.08515000
52.49977112,-53.08627000
52.54745483,-54.63058000
52.59513855,-66.62326000
52.64282227,-55.77756000
52.69050598,-49.87376000
52.73818970,-50.88276000
52.78587341,-52.59277000
52.83355713,-58.30976000
52.88124084,-82.01082000
52.92892456,-58.32336000
52.97660828,-57.36559000
53.02429199,-60.21630000
53.07197571,-68.84283000
53.11965942,-71.96306000
53.16734314,-65.09306000
53.21502686,-57.70928000
53.26271057,-59.33521000
53.31039429,-64.80844000
53.35807800,-61.28145000
53.40576172,-56.93845000
53.45344543,-60.66490000
53.50112915,-58.63976000
53.54881287,-57.50405000
53.59649658,-57.66694000
53.64418030,-53.19754000
53.69186401,-49.02798000
53.73954773,-49.00446000
53.78723145,-53.65088000
53.83491516,-52.88082000
53.88259888,-52.98862000
53.93028259,-51.39600000
53.97796631,-45.73801000
54.02565002,-49.48034000
54.07333374,-54.67509000
54.12101746,-52.39108000
54.16870117,-45.85056000
54.21638489,-46.42135000
54.26406860,-51.01379000
54.31175232,-54.21654000
54.35943604,-57.23223000
54.40711975,-52.92022000
54.45480347,-48.32355000
54.50248718,-47.57613000
54.55017090,-49.47456000
54.59785461,-55.67249000
54.64553833,-56.63401000
54.69322205,-52.82454000
54.74090576,-51.83842000
54.78858948,-49.68489000
54.83627319,-56.10580000
54.88395691,-60.34563000
54.93164063,-56.33805000
54.97932434,-51.06101000
55.02700806,-50.36501000
55.07469177,-52.98471000
55.12237549,-57.46126000
55.17005920,-57.88662000
55.21774292,-62.07369000
55.26542664,-62.28623000
55.31311035,-56.92199000
55.36079407,-59.74011000
55.40847778,-54.50698000
55.45616150,-59.13668000
55.50384521,-58.59894000
55.55152893,-56.84267000
55.59921265,-53.66637000
55.64689636,-51.38382000
55.69458008,-53.30917000
55.74226379,-54.39761000
55.78994751,-61.25942000
55.83763123,-65.63878000
55.88531494,-58.71136000
55.93299866,-54.63907000
55.98068237,-55.93030000
56.02836609,-63.13137000
56.07604980,-59.77246000
56.12373352,-61.61711000
56.17141724,-59.09296000
56.21910095,-53.64706000
56.26678467,-55.91398000
56.31446838,-58.63258000
56.36215210,-62.84136000
56.40983582,-53.94081000
56.45751953,-50.78664000
56.50520325,-52.03962000
56.55288696,-51.94242000
56.60057068,-55.39576000
56.64825439,-74.65633000
56.69593811,-57.94475000
56.74362183,-53.47927000
56.79130554,-63.87603000
56.83898926,-51.90350000
56.88667297,-53.11382000
56.93435669,-62.19605000
56.98204041,-53.76325000
57.02972412,-53.95300000
57.07740784,-55.04135000
57.12509155,-60.93289000
57.17277527,-67.84900000
57.22045898,-66.79461000
57.26814270,-59.00309000
57.31582642,-57.89251000
57.36351013,-57.35463000
57.41119385,-53.01109000
57.45887756,-59.93736000
57.50656128,-49.19874000
57.55424500,-47.23637000
57.60192871,-48.35277000
57.64961243,-50.78001000
57.69729614,-53.05412000
57.74497986,-49.34252000
57.79266357,-53.14552000
57.84034729,-57.90586000
57.88803101,-60.27036000
57.93571472,-56.39063000
57.98339844,-52.61108000
58.03108215,-52.24874000
58.07876587,-70.06625000
58.12644958,-51.58256000
58.17413330,-50.66220000
58.22181702,-56.26579000
58.26950073,-56.69463000
58.31718445,-55.31725000
58.36486816,-59.25959000
58.41255188,-61.22761000
58.46023560,-51.90892000
58.50791931,-49.04718000
58.55560303,-51.68829000
58.60328674,-60.72836000
58.65097046,-54.13345000
58.69865417,-50.76665000
58.74633789,-50.62835000
58.79402161,-54.47974000
58.84170532,-55.99544000
58.88938904,-57.96190000
58.93707275,-55.85290000
58.98475647,-61.22486000
59.03244019,-61.83102000
59.08012390,-52.03563000
59.12780762,-51.42650000
59.17549133,-50.46092000
59.22317505,-51.99224000
59.27085876,-61.60633000
59.31854248,-55.77299000
59.36622620,-52.18931000
59.41390991,-55.46941000
59.46159363,-56.45363000
59.50927734,-54.21268000
59.55696106,-52.12845000
59.60464478,-53.01958000
59.65232849,-59.94434000
59.70001221,-58.40154000
59.74769592,-51.72323000
59.79537964,-48.49205000
59.84306335,-49.65241000
59.89074707,-56.40342000
59.93843079,-72.36323000
59.98611450,-74.67632000
60.03379822,-65.20583000
60.08148193,-51.98380000
60.12916565,-49.52856000
60.17684937,-55.60020000
60.22453308,-57.17912000
60.27221680,-50.40420000
60.31990051,-53.20237000
60.36758423,-53.57654000
60.41526794,-55.63015000
60.46295166,-65.75275000
60.51063538,-54.07558000
60.55831909,-58.19147000
60.60600281,-58.07796000
60.65368652,-54.24307000
60.70137024,-48.50797000
60.74905396,-45.57780000
60.79673767,-49.27261000
60.84442139,-49.59158000
60.89210510,-44.59786000
60.93978882,-46.61970000
60.98747253,-55.73950000
61.03515625,-71.66080000
61.08283997,-56.51410000
61.13052368,-48.69840000
61.17820740,-49.20188000
61.22589111,-50.39095000
61.27357483,-55.03210000
61.32125854,-57.79854000
61.36894226,-60.68409000
61.41662598,-56.71501000
61.46430969,-64.01637000
61.51199341,-61.58387000
61.55967712,-58.03789000
61.60736084,-53.88176000
61.65504456,-60.22680000
61.70272827,-55.29779000
61.75041199,-53.73793000
61.79809570,-50.21287000
61.84577942,-53.07091000
61.89346313,-53.19168000
61.94114685,-54.98726000
61.98883057,-60.15738000
62.03651428,-59.30773000
62.08419800,-53.99639000
62.13188171,-56.30289000
62.17956543,-60.14921000
62.22724915,-53.92719000
62.27493286,-56.92120000
62.32261658,-58.75359000
62.37030029,-57.77690000
62.41798401,-64.63840000
62.46566772,-60.20421000
62.51335144,-55.26237000
62.56103516,-54.52930000
62.60871887,-56.50846000
62.65640259,-56.63599000
62.70408630,-63.56521000
62.75177002,-57.24654000
62.79945374,-54.65288000
62.84713745,-50.42594000
62.89482117,-54.62027000
62.94250488,-58.28577000
62.99018860,-55.18954000
63.03787231,-53.77134000
63.08555603,-53.41539000
63.13323975,-55.13198000
63.18092346,-53.37677000
63.22860718,-48.18628000
63.27629089,-50.30328000
63.32397461,-63.71204000
63.37165833,-57.60493000
63.41934204,-48.41326000
63.46702576,-47.49151000
63.51470947,-57.38754000
63.56239319,-61.07542000
63.61007690,-66.33456000
63.65776062,-76.12937000
63.70544434,-75.36504000
63.75312805,-59.54507000
63.80081177,-52.21726000
63.84849548,-58.46191000
63.89617920,-57.51517000
63.94386292,-50.96293000
63.99154663,-49.20395000
64.03923035,-51.76283000
64.08691406,-52.10234000
64.13459778,-51.93260000
64.18228149,-55.80211000
64.22996521,-59.10450000
64.27764893,-54.55237000
64.32533264,-55.12251000
64.37301636,-66.76526000
64.42070007,-61.66116000
64.46838379,-61.10199000
64.51606750,-78.40479000
64.56375122,-65.90785000
64.61143494,-57.43068000
64.65911865,-57.09066000
64.70680237,-55.28911000
64.75448608,-59.52151000
64.80216980,-60.78346000
64.84985352,-52.56851000
64.89753723,-53.58845000
64.94522095,-53.28740000
64.99290466,-52.86872000
65.04058838,-54.22282000
65.08827209,-52.57416000
65.13595581,-57.54317000
65.18363953,-49.95617000
65.23132324,-47.32605000
65.27900696,-50.61749000
65.32669067,-57.26228000
65.37437439,-58.62070000
65.42205811,-56.42307000
65.46974182,-55.28625000
65.51742554,-58.77512000
65.56510925,-50.55363000
65.61279297,-50.27118000
65.66047668,-63.84870000
65.70816040,-55.22663000
65.75584412,-54.03008000
65.80352783,-60.44630000
65.85121155,-59.65760000
65.89889526,-54.00827000
65.94657898,-61.68774000
65.99426270,-55.70671000
66.04194641,-50.92302000
66.08963013,-51.48560000
66.13731384,-49.59679000
66.18499756,-49.38868000
66.23268127,-57.94638000
66.28036499,-62.73211000
66.32804871,-56.54562000
66.37573242,-60.50879000
66.42341614,-60.04503000
66.47109985,-54.43145000
66.51878357,-68.88417000
66.56646729,-56.76166000
66.61415100,-56.86227000
66.66183472,-58.02226000
66.70951843,-54.12604000
66.75720215,-56.01894000
66.80488586,-59.31556000
66.85256958,-54.62210000
66.90025330,-50.00134000
66.94793701,-54.82834000
66.99562073,-53.85963000
67.04330444,-47.87164000
67.09098816,-47.65843000
67.13867188,-50.43784000
67.18635559,-60.80650000
67.23403931,-56.70458000
67.28172302,-52.36588000
67.32940674,-49.53056000
67.37709045,-45.74907000
67.42477417,-44.93258000
67.47245789,-47.19746000
67.52014160,-52.65909000
67.56782532,-65.11620000
67.61550903,-52.73326000
67.66319275,-51.37869000
67.71087646,-50.26367000
67.75856018,-49.95849000
67.80624390,-51.74891000
67.85392761,-74.38377000
67.90161133,-53.48852000
67.94929504,-54.66931000
67.99697876,-54.83864000
68.04466248,-52.91002000
68.09234619,-52.20406000
68.14002991,-54.52641000
68.18771362,-54.64745000
68.23539734,-55.09897000
68.28308105,-59.41167000
68.33076477,-58.44788000
68.37844849,-55.16268000
68.42613220,-53.64226000
68.47381592,-51.08681000
68.52149963,-53.62842000
68.56918335,-48.58796000
68.61686707,-50.18662000
68.66455078,-51.68117000
68.71223450,-51.72076000
68.75991821,-49.66133000
68.80760193,-51.62991000
68.85528564,-57.60466000
68.90296936,-60.16594000
68.95065308,-64.36942000
68.99833679,-59.92760000
69.04602051,-53.77738000
69.09370422,-53.85874000
69.14138794,-53.87701000
69.18907166,-56.57984000
69.23675537,-52.49680000
69.28443909,-54.81190000
69.33212280,-52.03011000
69.37980652,-55.69521000
69.42749023,-57.06910000
69.47517395,-51.56682000
69.52285767,-55.08728000
69.57054138,-53.59513000
69.61822510,-56.95993000
69.66590881,-62.74107000
69.71359253,-60.03673000
69.76127625,-54.13966000
69.80895996,-54.85877000
69.85664368,-56.06892000
69.90432739,-58.90075000
69.95201111,-49.79862000
69.99969482,-47.76725000
70.04737854,-52.17337000
70.09506226,-66.08816000
70.14274597,-49.76482000
70.19042969,-49.27227000
70.23811340,-55.64980000
70.28579712,-54.75145000
70.33348083,-55.37851000
70.38116455,-50.66478000
70.42884827,-49.11068000
70.47653198,-56.16223000
70.52421570,-61.40789000
70.57189941,-57.20705000
70.61958313,-56.05176000
70.66726685,-54.10524000
70.71495056,-57.58644000
70.76263428,-54.11446000
70.81031799,-54.93726000
70.85800171,-50.46220000
70.90568542,-52.60533000
70.95336914,-51.56821000
71.00105286,-49.03130000
71.04873657,-53.83416000
71.09642029,-55.49360000
71.14410400,-59.76162000
71.19178772,-62.98385000
71.23947144,-64.61987000
71.28715515,-50.94979000
71.33483887,-54.13392000
71.38252258,-61.12221000
71.43020630,-53.39165000
71.47789001,-55.63784000
71.52557373,-64.20744000
71.57325745,-59.53347000
71.62094116,-58.09172000
71.66862488,-53.76316000
71.71630859,-53.05164000
71.76399231,-53.02211000
71.81167603,-51.84367000
71.85935974,-52.57318000
71.90704346,-52.95332000
71.95472717,-48.65636000
72.00241089,-49.99068000
72.05009460,-54.42153000
72.09777832,-54.54672000
72.14546204,-60.62252000
72.19314575,-51.56417000
72.24082947,-49.98001000
72.28851318,-57.55206000
72.33619690,-60.89309000
72.38388062,-61.44120000
72.43156433,-53.09921000
72.47924805,-54.30875000
72.52693176,-61.47165000
72.57461548,-54.20454000
72.62229919,-49.90140000
72.66998291,-49.13307000
72.71766663,-50.98936000
72.76535034,-62.76653000
72.81303406,-53.17617000
72.86071777,-53.21190000
72.90840149,-61.84309000
72.95608521,-64.76125000
73.00376892,-53.13808000
73.05145264,-51.25663000
73.09913635,-53.64034000
73.14682007,-55.58681000
73.19450378,-55.66600000
73.24218750,-52.01274000
73.28987122,-49.28650000
73.33755493,-53.33051000
73.38523865,-53.66557000
73.43292236,-59.67507000
73.48060608,-54.93818000
73.52828979,-49.60829000
73.57597351,-48.02718000
73.62365723,-49.08024000
73.67134094,-49.16439000
73.71902466,-53.79502000
73.76670837,-62.23265000
73.81439209,-59.56040000
73.86207581,-51.73474000
73.90975952,-48.31440000
73.95744324,-51.04705000
74.00512695,-52.13180000
74.05281067,-57.57419000
74.10049438,-57.37461000
74.14817810,-56.25007000
74.19586182,-52.67122000
74.24354553,-51.45389000
74.29122925,-53.20141000
74.33891296,-67.85422000
74.38659668,-60.65288000
74.43428040,-53.42821000
74.48196411,-50.45917000
74.52964783,-52.55182000
74.57733154,-56.96398000
74.62501526,-55.91365000
74.67269897,-51.63545000
74.72038269,-46.77781000
74.76806641,-47.34314000
74.81575012,-51.54141000
74.86343384,-56.07992000
74.91111755,-57.56451000
74.95880127,-58.17390000
75.00648499,-51.60888000
75.05416870,-56.41945000
75.10185242,-57.98096000
75.14953613,-65.55110000
75.19721985,-62.77233000
75.24490356,-50.73260000
75.29258728,-46.37534000
75.34027100,-49.19306000
75.38795471,-59.29741000
75.43563843,-51.51659000
75.48332214,-53.90520000
75.53100586,-51.80592000
75.57868958,-49.58057000
75.62637329,-53.79580000
75.67405701,-86.74211000
75.72174072,-57.12494000
75.76942444,-51.43192000
75.81710815,-55.12241000
75.86479187,-53.77725000
75.91247559,-50.43665000
75.96015930,-49.69498000
76.00784302,-47.66763000
76.05552673,-49.62835000
76.10321045,-57.75018000
76.15089417,-63.84665000
76.19857788,-61.21607000
76.24626160,-55.81185000
76.29394531,-47.89611000
76.34162903,-48.74154000
76.38931274,-63.28895000
76.43699646,-57.35935000
76.48468018,-61.09537000
76.53236389,-63.04829000
76.58004761,-57.07687000
76.62773132,-49.68840000
76.67541504,-47.92325000
76.72309875,-50.68869000
76.77078247,-53.08530000
76.81846619,-65.83057000
76.86614990,-56.29637000
76.91383362,-54.39102000
76.96151733,-54.19330000
77.00920105,-71.97992000
77.05688477,-55.90030000
77.10456848,-53.82835000
77.15225220,-52.93204000
77.19993591,-58.96719000
77.24761963,-60.79094000
77.29530334,-62.24161000
77.34298706,-57.81109000
77.39067078,-55.17856000
77.43835449,-60.39047000
77.48603821,-57.84809000
77.53372192,-62.43076000
77.58140564,-55.88412000
77.62908936,-55.08470000
77.67677307,-63.33551000
77.72445679,-55.12676000
77.77214050,-50.75861000
77.81982422,-51.86744000
77.86750793,-61.33971000
77.91519165,-54.52046000
77.96287537,-53.96119000
78.01055908,-57.17936000
78.05824280,-57.82511000
78.10592651,-58.21065000
78.15361023,-53.80892000
78.20129395,-59.38814000
78.24897766,-59.80243000
78.29666138,-56.55632000
78.34434509,-67.25216000
78.39202881,-66.01630000
78.43971252,-61.96102000
78.48739624,-66.00369000
78.53507996,-60.13605000
78.58276367,-61.30283000
78.63044739,-56.32540000
78.67813110,-50.42730000
78.72581482,-55.52274000
78.77349854,-53.58156000
78.82118225,-53.50064000
78.86886597,-56.90287000
78.91654968,-52.67789000
78.96423340,-49.93730000
79.01191711,-53.39879000
79.05960083,-60.98088000
79.10728455,-57.65320000
79.15496826,-54.18272000
79.20265198,-52.44768000
79.25033569,-55.22370000
79.29801941,-57.20102000
79.34570313,-54.46157000
79.39338684,-51.67160000
79.44107056,-50.20068000
79.48875427,-57.08002000
79.53643799,-49.91545000
79.58412170,-51.65715000
79.63180542,-91.03349000
79.67948914,-56.35208000
79.72717285,-61.08066000
79.77485657,-67.81699000
79.82254028,-60.73539000
79.87022400,-65.87486000
79.91790771,-63.13667000
79.96559143,-53.85645000
80.01327515,-52.55581000
80.06095886,-55.58615000
80.10864258,-50.06227000
80.15632629,-50.75182000
80.20401001,-54.89377000
80.25169373,-65.02797000
80.29937744,-70.43137000
80.34706116,-59.23962000
80.39474487,-52.40407000
80.44242859,-49.46611000
80.49011230,-51.81306000
80.53779602,-64.03104000
80.58547974,-55.47941000
80.63316345,-55.54976000
80.68084717,-58.87398000
80.72853088,-58.66936000
80.77621460,-62.58758000
80.82389832,-63.40607000
80.87158203,-51.27381000
80.91926575,-46.51312000
80.96694946,-48.86330000
81.01463318,-55.78676000
81.06231689,-60.00858000
81.11000061,-55.74095000
81.15768433,-50.40176000
81.20536804,-57.23925000
81.25305176,-54.62968000
81.30073547,-49.35558000
81.34841919,-51.32802000
81.39610291,-58.47274000
81.44378662,-58.17822000
81.49147034,-55.58641000
81.53915405,-53.88901000
81.58683777,-48.39798000
81.63452148,-47.96986000
81.68220520,-51.29012000
81.72988892,-51.77078000
81.77757263,-52.82728000
81.82525635,-55.91107000
81.87294006,-54.70073000
81.92062378,-54.44636000
81.96830750,-53.58633000
82.01599121,-53.64517000
82.06367493,-58.05237000
82.11135864,-52.69215000
82.15904236,-51.41425000
82.20672607,-54.11932000
82.25440979,-53.59785000
82.30209351,-54.11280000
82.34977722,-57.43245000
82.39746094,-51.96725000
82.44514465,-51.71707000
82.49282837,-52.53184000
82.54051208,-56.66901000
82.58819580,-61.55606000
82.63587952,-53.31453000
82.68356323,-53.19096000
82.73124695,-49.96956000
82.77893066,-47.97006000
82.82661438,-52.18193000
82.87429810,-64.89246000
82.92198181,-54.83157000
82.96966553,-49.20852000
83.01734924,-51.66292000
83.06503296,-60.39849000
83.11271667,-58.28738000
83.16040039,-52.89415000
83.20808411,-55.52407000
83.25576782,-64.30225000
83.30345154,-55.49839000
83.35113525,-53.19069000
83.39881897,-58.39436000
83.44650269,-64.41089000
83.49418640,-55.81998000
83.54187012,-52.69753000
83.58955383,-50.51933000
83.63723755,-51.90465000
83.68492126,-53.94287000
83.73260498,-58.70155000
83.78028870,-68.48986000
83.82797241,-65.37576000
83.87565613,-61.12451000
83.92333984,-66.08548000
83.97102356,-51.45670000
84.01870728,-48.74173000
84.06639099,-52.42553000
84.11407471,-53.57926000
84.16175842,-48.61710000
84.20944214,-46.99241000
84.25712585,-50.60981000
84.30480957,-52.39137000
84.35249329,-56.45259000
84.40017700,-51.38005000
84.44786072,-49.42051000
84.49554443,-55.62535000
84.54322815,-51.06945000
84.59091187,-47.08854000
84.63859558,-49.30178000
84.68627930,-58.74674000
84.73396301,-51.67366000
84.78164673,-48.64899000
84.82933044,-50.13269000
84.87701416,-48.37490000
84.92469788,-55.42259000
84.97238159,-57.30271000
85.02006531,-65.25926000
85.06774902,-58.76173000
85.11543274,-54.76421000
85.16311646,-51.45367000
85.21080017,-51.10832000
85.25848389,-53.89873000
85.30616760,-56.85847000
85.35385132,-53.05455000
85.40153503,-58.73966000
85.44921875,-56.90375000
85.49690247,-53.80078000
85.54458618,-52.13950000
85.59226990,-46.66866000
85.63995361,-47.00195000
85.68763733,-51.02217000
85.73532104,-62.03169000
85.78300476,-59.41265000
85.83068848,-59.85107000
85.87837219,-51.99112000
85.92605591,-51.29719000
85.97373962,-55.01056000
86.02142334,-65.30760000
86.06910706,-58.50565000
86.11679077,-65.01253000
86.16447449,-52.48005000
86.21215820,-58.68200000
86.25984192,-57.45217000
86.30752563,-54.94277000
86.35520935,-50.45290000
86.40289307,-54.64042000
86.45057678,-58.29758000
86.49826050,-56.65425000
86.54594421,-58.04223000
86.59362793,-56.46498000
86.64131165,-51.05453000
86.68899536,-53.21405000
86.73667908,-60.95791000
86.78436279,-54.15387000
86.83204651,-55.52679000
86.87973022,-61.40145000
86.92741394,-57.06644000
86.97509766,-55.01691000
87.02278137,-59.90981000
87.07046509,-74.26690000
87.11814880,-56.15375000
87.16583252,-51.24474000
87.21351624,-50.13506000
87.26119995,-57.10918000
87.30888367,-54.21131000
87.35656738,-49.56364000
87.40425110,-49.35013000
87.45193481,-52.77212000
87.49961853,-59.40348000
87.54730225,-52.43097000
87.59498596,-48.63013000
87.64266968,-48.08432000
87.69035339,-47.77023000
87.73803711,-50.66052000
87.78572083,-55.35839000
87.83340454,-54.17136000
87.88108826,-57.28355000
87.92877197,-62.95475000
87.97645569,-59.63776000
88.02413940,-51.99289000
88.07182312,-51.05894000
88.11950684,-61.24285000
88.16719055,-69.52339000
88.21487427,-62.82669000
88.26255798,-68.01967000
88.31024170,-54.52536000
88.35792542,-49.47950000
88.40560913,-51.31393000
88.45329285,-63.79495000
88.50097656,-58.90715000
88.54866028,-53.83581000
88.59634399,-49.65075000
88.64402771,-52.37317000
88.69171143,-50.52399000
88.73939514,-49.90189000
88.78707886,-51.38374000
88.83476257,-49.01962000
88.88244629,-46.61255000
88.93013000,-50.43338000
88.97781372,-53.96700000
89.02549744,-55.75688000
89.07318115,-62.88206000
89.12086487,-61.45803000
89.16854858,-50.39900000
89.21623230,-47.17089000
89.26391602,-49.12775000
89.31159973,-53.93130000
89.35928345,-62.56132000
89.40696716,-65.06120000
89.45465088,-62.05266000
89.50233459,-55.51874000
89.55001831,-59.04222000
89.59770203,-67.48214000
89.64538574,-59.83913000
89.69306946,-53.61089000
89.74075317,-55.70591000
89.78843689,-52.73263000
89.83612061,-51.43097000
89.88380432,-58.40549000
89.93148804,-49.64237000
89.97917175,-50.16537000
90.02685547,-52.82193000
90.07453918,-49.92451000
90.12222290,-49.48385000
90.16990662,-52.61108000
90.21759033,-54.39041000
90.26527405,-54.31779000
90.31295776,-52.21685000
90.36064148,-49.38263000
90.40832520,-51.93740000
90.45600891,-54.40413000
90.50369263,-50.57526000
90.55137634,-54.68769000
90.59906006,-66.09494000
90.64674377,-58.93894000
90.69442749,-58.26152000
90.74211121,-50.46966000
90.78979492,-47.74200000
90.83747864,-53.08401000
90.88516235,-60.29004000
90.93284607,-53.52328000
90.98052979,-57.75631000
91.02821350,-63.74350000
91.07589722,-68.03933000
91.12358093,-61.44331000
91.17126465,-72.16212000
91.21894836,-60.64922000
91.26663208,-55.38627000
91.31431580,-55.62339000
91.36199951,-54.31435000
91.40968323,-55.93407000
91.45736694,-54.60706000
91.50505066,-54.54815000
91.55273438,-55.80412000
91.60041809,-54.89025000
91.64810181,-70.07941000
91.69578552,-51.13110000
91.74346924,-48.36089000
91.79115295,-49.88890000
91.83883667,-48.76084000
91.88652039,-49.16233000
91.93420410,-49.38011000
91.98188782,-48.29852000
92.02957153,-50.69324000
92.07725525,-55.19542000
92.12493896,-59.02981000
92.17262268,-58.37687000
92.22030640,-59.24921000
92.26799011,-56.94803000
92.31567383,-55.81684000
92.36335754,-54.08519000
92.41104126,-54.12422000
92.45872498,-52.82014000
92.50640869,-52.92317000
92.55409241,-53.24538000
92.60177612,-50.23706000
92.64945984,-51.39796000
92.69714355,-50.45798000
92.74482727,-50.96539000
92.79251099,-54.21049000
92.84019470,-55.14204000
92.88787842,-56.67591000
92.93556213,-51.51318000
92.98324585,-48.27372000
93.03092957,-50.90925000
93.07861328,-59.38271000
93.12629700,-63.20058000
93.17398071,-62.57967000
93.22166443,-58.15663000
93.26934814,-52.12914000
93.31703186,-52.22283000
93.36471558,-57.64683000
93.41239929,-56.82650000
93.46008301,-53.00076000
93.50776672,-51.39666000
93.55545044,-56.58569000
93.60313416,-53.88387000
93.65081787,-48.82722000
93.69850159,-59.19290000
93.74618530,-52.08511000
93.79386902,-51.05369000
93.84155273,-50.59872000
93.88923645,-51.07474000
93.93692017,-57.62535000
93.98460388,-61.48133000
94.03228760,-53.35496000
94.07997131,-50.20367000
94.12765503,-52.89066000
94.17533875,-53.15862000
94.22302246,-55.65342000
94.27070618,-53.49366000
94.31838989,-64.70740000
94.36607361,-60.48709000
94.41375732,-57.66739000
94.46144104,-54.59668000
94.50912476,-66.99461000
94.55680847,-52.82213000
94.60449219,-53.68422000
94.65217590,-51.74223000
94.69985962,-52.58347000
94.74754333,-52.42188000
94.79522705,-47.09460000
94.84291077,-47.21946000
94.89059448,-48.21654000
94.93827820,-51.21060000
94.98596191,-63.39086000
95.03364563,-57.98983000
95.08132935,-57.06499000
95.12901306,-58.18890000
95.17669678,-60.05314000
95.22438049,-75.52019000
95.27206421,-61.68737000
95.31974792,-72.41931000
95.36743164,-63.76299000
95.41511536,-60.79716000
95.46279907,-62.90786000
95.51048279,-60.72521000
95.55816650,-55.86004000
95.60585022,-52.22075000
95.65353394,-51.98540000
95.70121765,-64.59613000
95.74890137,-55.46255000
95.79658508,-53.69492000
95.84426880,-54.32512000
95.89195251,-48.47874000
95.93963623,-49.96963000
95.98731995,-51.85070000
96.03500366,-50.69968000
96.08268738,-56.55842000
96.13037109,-56.55779000
96.17805481,-50.40180000
96.22573853,-49.70573000
96.27342224,-51.91645000
96.32110596,-57.03932000
96.36878967,-60.93424000
96.41647339,-56.10071000
96.46415710,-54.38087000
96.51184082,-62.88888000
96.55952454,-58.56559000
96.60720825,-54.38160000
96.65489197,-54.11369000
96.70257568,-58.45813000
96.75025940,-59.07844000
96.79794312,-51.09048000
96.84562683,-48.82847000
96.89331055,-53.80107000
96.94099426,-59.27967000
96.98867798,-53.74511000
97.03636169,-48.75406000
97.08404541,-49.42454000
97.13172913,-56.93070000
97.17941284,-55.73517000
97.22709656,-51.35343000
97.27478027,-50.79445000
97.32246399,-53.22896000
97.37014771,-78.84860000
97.41783142,-63.46029000
97.46551514,-59.37871000
97.51319885,-53.94835000
97.56088257,-55.10990000
97.60856628,-61.18832000
