Frequency,Channel B
(kHz),(dBu)

0.00000000,-66.52760000
0.01192093,-70.87382000
0.02384186,-79.72589000
0.03576279,-82.98640000
0.04768372,-80.70877000
0.05960464,-96.70721000
0.07152557,-85.84106000
0.08344650,-81.53101000
0.09536743,-79.98394000
0.10728836,-80.57916000
0.11920929,-84.98847000
0.13113022,-88.56507000
0.14305115,-91.22624000
0.15497208,-90.21172000
0.16689301,-90.46970000
0.17881393,-86.94833000
0.19073486,-87.44379000
0.20265579,-87.60841000
0.21457672,-95.67047000
0.22649765,-92.61792000
0.23841858,-85.50563000
0.25033951,-83.36673000
0.26226044,-79.08467000
0.27418137,-73.40144000
0.28610229,-73.45631000
0.29802322,-76.41077000
0.30994415,-88.87916000
0.32186508,-81.97849000
0.33378601,-87.78416000
0.34570694,-89.34592000
0.35762787,-89.52042000
0.36954880,-95.26181000
0.38146973,-86.63685000
0.39339066,-86.36822000
0.40531158,-85.57504000
0.41723251,-86.13072000
0.42915344,-88.64896000
0.44107437,-96.76566000
0.45299530,-91.10118000
0.46491623,-91.73804000
0.47683716,-86.23267000
0.48875809,-89.03195000
0.50067902,-92.56007000
0.51259995,-97.46479000
0.52452087,-89.77751000
0.53644180,-92.85033000
0.54836273,-83.93555000
0.56028366,-86.65712000
0.57220459,-92.31871000
0.58412552,-91.75719000
0.59604645,-91.88706000
0.60796738,-89.18336000
0.61988831,-87.19184000
0.63180923,-98.53586000
0.64373016,-92.21907000
0.65565109,-84.78178000
0.66757202,-87.46538000
0.67949295,-88.70082000
0.69141388,-87.48598000
0.70333481,-83.79876000
0.71525574,-81.21934000
0.72717667,-84.29192000
0.73909760,-85.92999000
0.75101852,-89.67289000
0.76293945,-92.74934000
0.77486038,-89.86320000
0.78678131,-86.84140000
0.79870224,-89.99072000
0.81062317,-86.43937000
0.82254410,-88.58156000
0.83446503,-95.31792000
0.84638596,-83.88037000
0.85830688,-80.88085000
0.87022781,-83.83087000
0.88214874,-90.87849000
0.89406967,-87.17709000
0.90599060,-86.51147000
0.91791153,-93.37703000
0.92983246,-85.52139000
0.94175339,-85.01220000
0.95367432,-91.08531000
0.96559525,-99.64416000
0.97751617,-87.01358000
0.98943710,-82.03291000
1.00135803,-82.81197000
1.01327896,-84.69374000
1.02519989,-85.61036000
1.03712082,-89.33201000
1.04904175,-90.42290000
1.06096268,-92.44960000
1.07288361,-87.43180000
1.08480453,-87.16353000
1.09672546,-84.91479000
1.10864639,-85.83864000
1.12056732,-101.88260000
1.13248825,-90.36918000
1.14440918,-86.70051000
1.15633011,-84.13429000
1.16825104,-81.63712000
1.18017197,-77.90079000
1.19209290,-76.67525000
1.20401382,-78.50818000
1.21593475,-82.44836000
1.22785568,-81.25430000
1.23977661,-84.44879000
1.25169754,-89.78525000
1.26361847,-103.31880000
1.27553940,-85.37579000
1.28746033,-84.15984000
1.29938126,-86.91328000
1.31130219,-87.33589000
1.32322311,-84.63000000
1.33514404,-84.43546000
1.34706497,-84.48013000
1.35898590,-84.25865000
1.37090683,-85.24970000
1.38282776,-84.75930000
1.39474869,-85.32297000
1.40666962,-86.23032000
1.41859055,-91.73286000
1.43051147,-88.02094000
1.44243240,-83.72110000
1.45435333,-81.81628000
1.46627426,-85.30214000
1.47819519,-88.17165000
1.49011612,-83.04179000
1.50203705,-82.38273000
1.51395798,-89.12892000
1.52587891,-104.26890000
1.53779984,-98.91019000
1.54972076,-104.24170000
1.56164169,-100.91300000
1.57356262,-101.31070000
1.58548355,-87.13937000
1.59740448,-85.48534000
1.60932541,-90.43805000
1.62124634,-100.11520000
1.63316727,-110.54630000
1.64508820,-98.00762000
1.65700912,-98.26877000
1.66893005,-97.09916000
1.68085098,-85.70100000
1.69277191,-85.29870000
1.70469284,-81.87555000
1.71661377,-79.54909000
1.72853470,-82.36419000
1.74045563,-85.80384000
1.75237656,-82.05832000
1.76429749,-80.70990000
1.77621841,-83.30476000
1.78813934,-87.29671000
1.80006027,-93.34060000
1.81198120,-90.57418000
1.82390213,-85.15404000
1.83582306,-86.43517000
1.84774399,-83.82976000
1.85966492,-80.35824000
1.87158585,-81.51778000
1.88350677,-87.04050000
1.89542770,-94.50983000
1.90734863,-89.14171000
1.91926956,-86.42800000
1.93119049,-90.51749000
1.94311142,-93.41239000
1.95503235,-89.26749000
1.96695328,-91.04416000
1.97887421,-95.31971000
1.99079514,-92.97368000
2.00271606,-90.67950000
2.01463699,-88.50293000
2.02655792,-85.62942000
2.03847885,-80.21049000
2.05039978,-82.30111000
2.06232071,-87.79507000
2.07424164,-95.01423000
2.08616257,-89.21096000
2.09808350,-84.01009000
2.11000443,-87.65285000
2.12192535,-88.71497000
2.13384628,-85.61603000
2.14576721,-86.80792000
2.15768814,-84.15735000
2.16960907,-85.11260000
2.18153000,-92.09421000
2.19345093,-93.60343000
2.20537186,-88.92167000
2.21729279,-87.84419000
2.22921371,-87.58936000
2.24113464,-88.85957000
2.25305557,-85.63487000
2.26497650,-83.39059000
2.27689743,-89.70721000
2.28881836,-95.73219000
2.30073929,-90.09452000
2.31266022,-88.69824000
2.32458115,-90.75835000
2.33650208,-94.90268000
2.34842300,-93.96516000
2.36034393,-94.55453000
2.37226486,-95.97577000
2.38418579,-86.85448000
2.39610672,-82.07362000
2.40802765,-82.15102000
2.41994858,-83.30078000
2.43186951,-85.95264000
2.44379044,-100.95570000
2.45571136,-99.18906000
2.46763229,-97.55647000
2.47955322,-98.83831000
2.49147415,-91.60476000
2.50339508,-94.61819000
2.51531601,-92.89888000
2.52723694,-97.49019000
2.53915787,-88.77632000
2.55107880,-83.33212000
2.56299973,-80.67834000
2.57492065,-80.91588000
2.58684158,-85.51447000
2.59876251,-91.60972000
2.61068344,-101.26660000
2.62260437,-95.68063000
2.63452530,-88.67913000
2.64644623,-87.95316000
2.65836716,-92.12310000
2.67028809,-102.41840000
2.68220901,-93.12407000
2.69412994,-88.50121000
2.70605087,-88.94370000
2.71797180,-98.55849000
2.72989273,-86.99602000
2.74181366,-92.03313000
2.75373459,-101.68750000
2.76565552,-97.42531000
2.77757645,-92.76212000
2.78949738,-87.35355000
2.80141830,-84.65333000
2.81333923,-86.42828000
2.82526016,-90.27951000
2.83718109,-91.07726000
2.84910202,-88.36009000
2.86102295,-97.39738000
2.87294388,-91.64079000
2.88486481,-89.53299000
2.89678574,-88.86298000
2.90870667,-92.09187000
2.92062759,-92.09981000
2.93254852,-86.25782000
2.94446945,-88.25494000
2.95639038,-90.59598000
2.96831131,-89.29572000
2.98023224,-99.76120000
2.99215317,-98.81837000
3.00407410,-96.30640000
3.01599503,-99.76662000
3.02791595,-90.08178000
3.03983688,-97.42840000
3.05175781,-84.37064000
3.06367874,-80.31081000
3.07559967,-80.64607000
3.08752060,-81.94073000
3.09944153,-89.89175000
3.11136246,-115.49100000
3.12328339,-87.86916000
3.13520432,-82.04708000
3.14712524,-85.85255000
3.15904617,-97.91234000
3.17096710,-92.39211000
3.18288803,-95.26263000
3.19480896,-103.11320000
3.20672989,-89.37410000
3.21865082,-88.45440000
3.23057175,-93.93713000
3.24249268,-94.21138000
3.25441360,-98.92570000
3.26633453,-95.99616000
3.27825546,-90.88345000
3.29017639,-88.08308000
3.30209732,-84.72028000
3.31401825,-89.33601000
3.32593918,-91.48246000
3.33786011,-83.23256000
3.34978104,-83.70218000
3.36170197,-84.40057000
3.37362289,-83.61530000
3.38554382,-86.09097000
3.39746475,-89.49025000
3.40938568,-88.01987000
3.42130661,-86.00046000
3.43322754,-88.77086000
3.44514847,-95.30236000
3.45706940,-84.70740000
3.46899033,-84.40441000
3.48091125,-88.95828000
3.49283218,-91.80106000
3.50475311,-94.39575000
3.51667404,-110.58330000
3.52859497,-116.40010000
3.54051590,-92.83000000
3.55243683,-87.17854000
3.56435776,-84.95432000
3.57627869,-82.40213000
3.58819962,-81.89231000
3.60012054,-86.30278000
3.61204147,-89.13517000
3.62396240,-87.98714000
3.63588333,-88.44552000
3.64780426,-84.93531000
3.65972519,-81.62003000
3.67164612,-80.70082000
3.68356705,-83.90013000
3.69548798,-96.45381000
3.70740891,-88.66109000
3.71932983,-87.33736000
3.73125076,-90.79182000
3.74317169,-100.39050000
3.75509262,-90.37260000
3.76701355,-92.02019000
3.77893448,-89.46971000
3.79085541,-95.02676000
3.80277634,-100.85220000
3.81469727,-89.18393000
3.82661819,-83.96336000
3.83853912,-83.81342000
3.85046005,-86.27547000
3.86238098,-90.54732000
3.87430191,-85.95064000
3.88622284,-85.99658000
3.89814377,-89.26892000
3.91006470,-94.17613000
3.92198563,-92.07880000
3.93390656,-91.01480000
3.94582748,-90.55146000
3.95774841,-85.70473000
3.96966934,-82.85300000
3.98159027,-81.05033000
3.99351120,-83.06123000
4.00543213,-89.86752000
4.01735306,-105.82380000
4.02927399,-90.16452000
4.04119492,-86.13062000
4.05311584,-83.63913000
4.06503677,-82.92163000
4.07695770,-86.08296000
4.08887863,-93.39288000
4.10079956,-98.81728000
4.11272049,-95.17374000
4.12464142,-95.02859000
4.13656235,-87.35220000
4.14848328,-90.69220000
4.16040421,-87.91602000
4.17232513,-85.11932000
4.18424606,-89.36713000
4.19616699,-89.38503000
4.20808792,-92.00690000
4.22000885,-86.17817000
4.23192978,-80.80222000
4.24385071,-79.38362000
4.25577164,-81.97610000
4.26769257,-85.61570000
4.27961349,-90.34964000
4.29153442,-96.65234000
4.30345535,-92.63121000
4.31537628,-85.20865000
4.32729721,-86.33624000
4.33921814,-106.12790000
4.35113907,-89.97792000
4.36306000,-89.57419000
4.37498093,-103.55450000
4.38690186,-91.26503000
4.39882278,-94.88939000
4.41074371,-88.55704000
4.42266464,-83.31577000
4.43458557,-78.59865000
4.44650650,-80.35512000
4.45842743,-105.43950000
4.47034836,-81.60542000
4.48226929,-80.18113000
4.49419022,-89.40903000
4.50611115,-100.58790000
4.51803207,-94.30330000
4.52995300,-91.33137000
4.54187393,-94.16634000
4.55379486,-89.49322000
4.56571579,-94.62724000
4.57763672,-90.90145000
4.58955765,-87.06969000
4.60147858,-94.00951000
4.61339951,-91.64608000
4.62532043,-90.68007000
4.63724136,-82.59389000
4.64916229,-82.59212000
4.66108322,-85.71539000
4.67300415,-85.81730000
4.68492508,-84.60165000
4.69684601,-97.82312000
4.70876694,-80.85801000
4.72068787,-79.21416000
4.73260880,-79.11835000
4.74452972,-69.41826000
4.75645065,-73.58971000
4.76837158,-83.62679000
4.78029251,-85.06596000
4.79221344,-84.25629000
4.80413437,-88.24479000
4.81605530,-88.97601000
4.82797623,-82.68478000
4.83989716,-76.97984000
4.85181808,-76.66299000
4.86373901,-85.89575000
4.87565994,-92.57786000
4.88758087,-88.80779000
4.89950180,-88.98883000
4.91142273,-93.53586000
4.92334366,-84.31319000
4.93526459,-81.50311000
4.94718552,-84.02637000
4.95910645,-100.77220000
4.97102737,-102.12650000
4.98294830,-97.64281000
4.99486923,-94.55856000
5.00679016,-93.92715000
5.01871109,-89.66670000
5.03063202,-92.20557000
5.04255295,-91.50258000
5.05447388,-83.57375000
5.06639481,-81.20171000
5.07831573,-81.81912000
5.09023666,-87.81865000
5.10215759,-96.20242000
5.11407852,-97.45002000
5.12599945,-99.26706000
5.13792038,-86.60982000
5.14984131,-86.04347000
5.16176224,-94.73289000
5.17368317,-90.95805000
5.18560410,-99.14996000
5.19752502,-89.65137000
5.20944595,-94.84554000
5.22136688,-90.39670000
5.23328781,-83.62334000
5.24520874,-83.31471000
5.25712967,-96.45525000
5.26905060,-98.81830000
5.28097153,-94.44109000
5.29289246,-91.49262000
5.30481339,-87.49675000
5.31673431,-84.26739000
5.32865524,-84.81847000
5.34057617,-87.41010000
5.35249710,-87.12543000
5.36441803,-88.80624000
5.37633896,-90.80734000
5.38825989,-85.99109000
5.40018082,-91.79925000
5.41210175,-90.54080000
5.42402267,-85.79540000
5.43594360,-82.30758000
5.44786453,-81.69753000
5.45978546,-87.52202000
5.47170639,-86.28830000
5.48362732,-84.89951000
5.49554825,-88.43735000
5.50746918,-89.44917000
5.51939011,-89.40501000
5.53131104,-83.40652000
5.54323196,-83.13668000
5.55515289,-90.10907000
5.56707382,-91.48109000
5.57899475,-90.08251000
5.59091568,-85.83190000
5.60283661,-86.08852000
5.61475754,-91.22558000
5.62667847,-85.57308000
5.63859940,-89.75292000
5.65052032,-92.88382000
5.66244125,-89.94342000
5.67436218,-86.32310000
5.68628311,-100.68510000
5.69820404,-91.86619000
5.71012497,-104.22290000
5.72204590,-86.87664000
5.73396683,-82.34714000
5.74588776,-82.69347000
5.75780869,-85.64132000
5.76972961,-88.11317000
5.78165054,-90.66206000
5.79357147,-85.93561000
5.80549240,-90.56963000
5.81741333,-87.49259000
5.82933426,-82.58783000
5.84125519,-83.17712000
5.85317612,-86.83859000
5.86509705,-87.18680000
5.87701797,-88.95016000
5.88893890,-87.08920000
5.90085983,-86.64619000
5.91278076,-91.72276000
5.92470169,-93.08055000
5.93662262,-85.19112000
5.94854355,-83.65132000
5.96046448,-90.31371000
5.97238541,-95.28912000
5.98430634,-98.13099000
5.99622726,-91.40521000
6.00814819,-84.82512000
6.02006912,-86.10274000
6.03199005,-98.39382000
6.04391098,-93.36819000
6.05583191,-90.06352000
6.06775284,-88.03499000
6.07967377,-84.68879000
6.09159470,-83.61755000
6.10351563,-84.39663000
6.11543655,-82.23508000
6.12735748,-83.88646000
6.13927841,-92.60072000
6.15119934,-96.98536000
6.16312027,-93.65246000
6.17504120,-106.25310000
6.18696213,-89.17314000
6.19888306,-89.50446000
6.21080399,-93.68181000
6.22272491,-82.66333000
6.23464584,-78.93967000
6.24656677,-79.85787000
6.25848770,-86.48995000
6.27040863,-87.19891000
6.28232956,-85.90016000
6.29425049,-91.04675000
6.30617142,-90.37917000
6.31809235,-83.72424000
6.33001328,-84.96028000
6.34193420,-112.41730000
6.35385513,-89.85921000
6.36577606,-90.56945000
6.37769699,-88.05228000
6.38961792,-84.00952000
6.40153885,-84.01635000
6.41345978,-88.68679000
6.42538071,-100.04560000
6.43730164,-83.26323000
6.44922256,-84.43069000
6.46114349,-91.69135000
6.47306442,-87.13971000
6.48498535,-96.88785000
6.49690628,-92.54987000
6.50882721,-87.76939000
6.52074814,-83.91359000
6.53266907,-82.15133000
6.54459000,-80.95425000
6.55651093,-83.34042000
6.56843185,-92.69019000
6.58035278,-103.80100000
6.59227371,-89.27953000
6.60419464,-89.11915000
6.61611557,-88.66459000
6.62803650,-88.47622000
6.63995743,-84.79187000
6.65187836,-85.79729000
6.66379929,-102.65160000
6.67572021,-86.93585000
6.68764114,-86.14073000
6.69956207,-86.13237000
6.71148300,-86.37621000
6.72340393,-87.56610000
6.73532486,-88.72113000
6.74724579,-86.42605000
6.75916672,-83.12563000
6.77108765,-85.80365000
6.78300858,-89.34277000
6.79492950,-92.41943000
6.80685043,-91.08241000
6.81877136,-87.27823000
6.83069229,-85.60637000
6.84261322,-82.72389000
6.85453415,-87.12341000
6.86645508,-99.17702000
6.87837601,-111.90290000
6.89029694,-92.28711000
6.90221786,-88.10426000
6.91413879,-91.94787000
6.92605972,-97.38020000
6.93798065,-89.09988000
6.94990158,-83.26054000
6.96182251,-83.50446000
6.97374344,-88.27818000
6.98566437,-90.99072000
6.99758530,-82.57061000
7.00950623,-83.58202000
7.02142715,-91.79028000
7.03334808,-116.14320000
7.04526901,-92.35561000
7.05718994,-87.85262000
7.06911087,-92.69004000
7.08103180,-97.96678000
7.09295273,-86.19411000
7.10487366,-83.99715000
7.11679459,-90.09063000
7.12871552,-99.20457000
7.14063644,-89.31854000
7.15255737,-95.87112000
7.16447830,-100.01070000
7.17639923,-95.54408000
7.18832016,-92.58038000
7.20024109,-97.86246000
7.21216202,-96.12956000
7.22408295,-90.63742000
7.23600388,-91.90065000
7.24792480,-97.29672000
7.25984573,-92.25002000
7.27176666,-100.58230000
7.28368759,-90.06821000
7.29560852,-83.38574000
7.30752945,-86.21089000
7.31945038,-90.47421000
7.33137131,-89.52392000
7.34329224,-86.97694000
7.35521317,-90.53351000
7.36713409,-84.34470000
7.37905502,-82.48474000
7.39097595,-86.17494000
7.40289688,-96.85116000
7.41481781,-97.02750000
7.42673874,-94.05534000
7.43865967,-92.27809000
7.45058060,-90.98010000
7.46250153,-90.28001000
7.47442245,-90.97990000
7.48634338,-97.11243000
7.49826431,-99.05499000
7.51018524,-99.39542000
7.52210617,-104.54200000
7.53402710,-97.45294000
7.54594803,-104.41090000
7.55786896,-91.84796000
7.56978989,-85.95023000
7.58171082,-85.81163000
7.59363174,-88.60503000
7.60555267,-95.49396000
7.61747360,-97.18643000
7.62939453,-86.46217000
7.64131546,-86.83652000
7.65323639,-98.46364000
7.66515732,-109.54840000
7.67707825,-98.43793000
7.68899918,-95.70100000
7.70092010,-93.74375000
7.71284103,-92.08896000
7.72476196,-89.15404000
7.73668289,-91.06900000
7.74860382,-94.81391000
7.76052475,-92.95377000
7.77244568,-86.65790000
7.78436661,-88.31245000
7.79628754,-89.69243000
7.80820847,-96.00148000
7.82012939,-87.74254000
7.83205032,-86.18991000
7.84397125,-81.34979000
7.85589218,-81.13277000
7.86781311,-83.94829000
7.87973404,-91.97198000
7.89165497,-95.44478000
7.90357590,-93.72250000
7.91549683,-92.29512000
7.92741776,-88.14336000
7.93933868,-87.01023000
7.95125961,-91.60657000
7.96318054,-104.77480000
7.97510147,-87.33278000
7.98702240,-80.59464000
7.99894333,-81.73151000
8.01086426,-89.00109000
8.02278519,-92.93779000
8.03470612,-87.76349000
8.04662704,-82.50787000
8.05854797,-87.40707000
8.07046890,-91.90529000
8.08238983,-85.53741000
8.09431076,-90.09350000
8.10623169,-89.39914000
8.11815262,-87.42296000
8.13007355,-83.29500000
8.14199448,-79.66413000
8.15391541,-80.99320000
8.16583633,-86.77987000
8.17775726,-91.95636000
8.18967819,-90.02717000
8.20159912,-91.13281000
8.21352005,-97.35193000
8.22544098,-103.36300000
8.23736191,-91.55052000
8.24928284,-94.01837000
8.26120377,-92.20529000
8.27312469,-93.78159000
8.28504562,-97.32173000
8.29696655,-90.44399000
8.30888748,-84.61521000
8.32080841,-87.41669000
8.33272934,-95.78644000
8.34465027,-96.37747000
8.35657120,-94.44449000
8.36849213,-113.59330000
8.38041306,-98.28957000
8.39233398,-96.85368000
8.40425491,-92.91462000
8.41617584,-89.85160000
8.42809677,-110.12110000
8.44001770,-88.20373000
8.45193863,-86.02528000
8.46385956,-87.63147000
8.47578049,-105.70660000
8.48770142,-104.78350000
8.49962234,-88.40247000
8.51154327,-90.94750000
8.52346420,-105.37580000
8.53538513,-90.96262000
8.54730606,-91.10417000
8.55922699,-89.95980000
8.57114792,-88.43629000
8.58306885,-84.76572000
8.59498978,-81.59164000
8.60691071,-83.45102000
8.61883163,-92.14520000
8.63075256,-98.44054000
8.64267349,-94.30986000
8.65459442,-85.12345000
8.66651535,-84.20574000
8.67843628,-90.49231000
8.69035721,-95.76572000
8.70227814,-94.00012000
8.71419907,-96.70734000
8.72612000,-98.12019000
8.73804092,-89.85429000
8.74996185,-86.70684000
8.76188278,-86.98715000
8.77380371,-85.43034000
8.78572464,-89.75098000
8.79764557,-94.75996000
8.80956650,-97.20336000
8.82148743,-88.58188000
8.83340836,-84.74648000
8.84532928,-90.41447000
8.85725021,-85.78430000
8.86917114,-84.80206000
8.88109207,-85.75589000
8.89301300,-87.16293000
8.90493393,-89.93119000
8.91685486,-96.24292000
8.92877579,-92.37915000
8.94069672,-88.89946000
8.95261765,-88.91727000
8.96453857,-84.65209000
8.97645950,-82.95654000
8.98838043,-84.74782000
9.00030136,-86.77842000
9.01222229,-85.65040000
9.02414322,-87.34222000
9.03606415,-96.09002000
9.04798508,-84.81209000
9.05990601,-81.90498000
9.07182693,-83.06715000
9.08374786,-86.51555000
9.09566879,-92.07266000
9.10758972,-100.86700000
9.11951065,-101.07730000
9.13143158,-88.95516000
9.14335251,-85.87813000
9.15527344,-87.14430000
9.16719437,-87.38219000
9.17911530,-84.97337000
9.19103622,-85.35857000
9.20295715,-81.97735000
9.21487808,-80.88319000
9.22679901,-84.22945000
9.23871994,-94.81447000
9.25064087,-112.24070000
9.26256180,-86.12682000
9.27448273,-83.46001000
9.28640366,-89.33710000
9.29832458,-93.17664000
9.31024551,-90.31967000
9.32216644,-93.39314000
9.33408737,-91.79692000
9.34600830,-86.96990000
9.35792923,-84.73755000
9.36985016,-90.44305000
9.38177109,-93.77255000
9.39369202,-88.39436000
9.40561295,-90.10593000
9.41753387,-90.43815000
9.42945480,-86.42587000
9.44137573,-85.46176000
9.45329666,-94.86713000
9.46521759,-86.80329000
9.47713852,-84.88206000
9.48905945,-87.41393000
9.50098038,-93.75079000
9.51290131,-93.52515000
9.52482224,-99.87827000
9.53674316,-89.52173000
9.54866409,-88.94971000
9.56058502,-89.97034000
9.57250595,-97.73143000
9.58442688,-89.43505000
9.59634781,-83.97108000
9.60826874,-85.82729000
9.62018967,-87.74308000
9.63211060,-87.81273000
9.64403152,-86.80653000
9.65595245,-86.71358000
9.66787338,-87.76692000
9.67979431,-89.47653000
9.69171524,-99.62126000
9.70363617,-91.45512000
9.71555710,-86.09865000
9.72747803,-88.37840000
9.73939896,-102.23830000
9.75131989,-97.41218000
9.76324081,-101.18010000
9.77516174,-90.31197000
9.78708267,-85.74912000
9.79900360,-87.14523000
9.81092453,-89.51083000
9.82284546,-96.35346000
9.83476639,-105.46580000
9.84668732,-92.96381000
9.85860825,-88.35840000
9.87052917,-88.55766000
9.88245010,-88.80325000
9.89437103,-86.89437000
9.90629196,-83.85052000
9.91821289,-87.04873000
9.93013382,-98.95733000
9.94205475,-90.73500000
9.95397568,-87.85349000
9.96589661,-86.58784000
9.97781754,-89.25903000
9.98973846,-89.28816000
10.00165939,-85.60436000
10.01358032,-96.95743000
10.02550125,-88.27563000
10.03742218,-97.33506000
10.04934311,-97.83646000
10.06126404,-91.78626000
10.07318497,-85.63603000
10.08510590,-84.43362000
10.09702682,-84.78141000
10.10894775,-86.16829000
10.12086868,-89.85826000
10.13278961,-86.80107000
10.14471054,-81.95711000
10.15663147,-82.14034000
10.16855240,-87.83244000
10.18047333,-84.36881000
10.19239426,-82.26711000
10.20431519,-84.28380000
10.21623611,-85.28241000
10.22815704,-86.57401000
10.24007797,-85.88283000
10.25199890,-85.48343000
10.26391983,-86.31828000
10.27584076,-82.48467000
10.28776169,-80.82164000
10.29968262,-81.42624000
10.31160355,-84.04194000
10.32352448,-90.97928000
10.33544540,-87.58839000
10.34736633,-90.07783000
10.35928726,-85.86406000
10.37120819,-85.40541000
10.38312912,-90.49638000
10.39505005,-90.58305000
10.40697098,-90.27142000
10.41889191,-94.17457000
10.43081284,-90.05260000
10.44273376,-96.93022000
10.45465469,-96.63331000
10.46657562,-92.88560000
10.47849655,-88.64060000
10.49041748,-91.37272000
10.50233841,-95.59712000
10.51425934,-87.27971000
10.52618027,-84.74451000
10.53810120,-87.48050000
10.55002213,-87.03691000
10.56194305,-83.66313000
10.57386398,-86.82416000
10.58578491,-89.04053000
10.59770584,-85.98130000
10.60962677,-81.59485000
10.62154770,-83.95694000
10.63346863,-91.84541000
10.64538956,-90.18797000
10.65731049,-90.42182000
10.66923141,-87.01907000
10.68115234,-90.69053000
10.69307327,-89.25864000
10.70499420,-85.48690000
10.71691513,-86.04992000
10.72883606,-85.61065000
10.74075699,-97.23373000
10.75267792,-86.35332000
10.76459885,-85.56324000
10.77651978,-91.19759000
10.78844070,-99.35669000
10.80036163,-93.90536000
10.81228256,-93.20007000
10.82420349,-88.81853000
10.83612442,-83.46057000
10.84804535,-84.37171000
10.85996628,-87.72567000
10.87188721,-90.22157000
10.88380814,-100.15130000
10.89572906,-89.06847000
10.90764999,-88.90298000
10.91957092,-85.63895000
10.93149185,-85.35165000
10.94341278,-91.15501000
10.95533371,-97.57280000
10.96725464,-94.22742000
10.97917557,-90.21539000
10.99109650,-89.47253000
11.00301743,-88.94321000
11.01493835,-87.78587000
11.02685928,-95.23833000
11.03878021,-93.50119000
11.05070114,-95.26139000
11.06262207,-96.81349000
11.07454300,-96.40469000
11.08646393,-85.68501000
11.09838486,-84.32060000
11.11030579,-89.24263000
11.12222672,-90.57246000
11.13414764,-89.48668000
11.14606857,-89.17365000
11.15798950,-87.10411000
11.16991043,-84.71099000
11.18183136,-81.19274000
11.19375229,-81.73845000
11.20567322,-86.68411000
11.21759415,-87.49230000
11.22951508,-86.19964000
11.24143600,-87.63795000
11.25335693,-92.90435000
11.26527786,-91.46605000
11.27719879,-94.21413000
11.28911972,-91.27457000
11.30104065,-85.69873000
11.31296158,-91.26031000
11.32488251,-93.64044000
11.33680344,-90.06973000
11.34872437,-94.41106000
11.36064529,-103.74990000
11.37256622,-95.41657000
11.38448715,-89.48801000
11.39640808,-86.92461000
11.40832901,-88.13904000
11.42024994,-90.24764000
11.43217087,-91.64092000
11.44409180,-94.03865000
11.45601273,-94.73034000
11.46793365,-88.76599000
11.47985458,-82.24282000
11.49177551,-83.39639000
11.50369644,-88.16841000
11.51561737,-92.96725000
11.52753830,-89.83176000
11.53945923,-83.66883000
11.55138016,-87.88739000
11.56330109,-89.67859000
11.57522202,-92.52271000
11.58714294,-90.18312000
11.59906387,-89.99445000
11.61098480,-118.93920000
11.62290573,-88.75370000
11.63482666,-89.00661000
11.64674759,-99.34618000
11.65866852,-89.78576000
11.67058945,-81.52051000
11.68251038,-82.78687000
11.69443130,-88.07019000
11.70635223,-87.82796000
11.71827316,-99.70938000
11.73019409,-88.74422000
11.74211502,-93.94555000
11.75403595,-96.96965000
11.76595688,-91.02149000
11.77787781,-95.59777000
11.78979874,-94.19295000
11.80171967,-94.14985000
11.81364059,-92.59694000
11.82556152,-93.30692000
11.83748245,-86.68815000
11.84940338,-94.75298000
11.86132431,-91.70056000
11.87324524,-88.90319000
11.88516617,-84.89453000
11.89708710,-84.30515000
11.90900803,-88.60999000
11.92092896,-99.89249000
11.93284988,-87.29573000
11.94477081,-83.13794000
11.95669174,-81.69887000
11.96861267,-82.95541000
11.98053360,-88.84358000
11.99245453,-94.80503000
12.00437546,-88.99426000
12.01629639,-87.48518000
12.02821732,-86.39680000
12.04013824,-84.05736000
12.05205917,-83.47256000
12.06398010,-85.85168000
12.07590103,-90.16226000
12.08782196,-87.68591000
12.09974289,-86.70597000
12.11166382,-91.32738000
12.12358475,-88.67644000
12.13550568,-84.63283000
12.14742661,-83.97843000
12.15934753,-85.10519000
12.17126846,-85.82612000
12.18318939,-88.61530000
12.19511032,-89.53118000
12.20703125,-86.94527000
12.21895218,-87.49989000
12.23087311,-87.02697000
12.24279404,-88.81265000
12.25471497,-92.52844000
12.26663589,-87.05089000
12.27855682,-82.93547000
12.29047775,-86.74193000
12.30239868,-93.56827000
12.31431961,-90.97001000
12.32624054,-89.09995000
12.33816147,-83.85808000
12.35008240,-80.39727000
12.36200333,-80.39664000
12.37392426,-81.42569000
12.38584518,-83.71397000
12.39776611,-87.98336000
12.40968704,-99.80771000
12.42160797,-91.23700000
12.43352890,-90.05868000
12.44544983,-87.85587000
12.45737076,-88.81435000
12.46929169,-88.37669000
12.48121262,-88.56886000
12.49313354,-89.16072000
12.50505447,-85.83369000
12.51697540,-81.20573000
12.52889633,-81.15886000
12.54081726,-85.94917000
12.55273819,-89.91917000
12.56465912,-87.92199000
12.57658005,-87.01000000
12.58850098,-87.81388000
12.60042191,-87.74334000
12.61234283,-89.29925000
12.62426376,-91.06592000
12.63618469,-89.46224000
12.64810562,-86.64302000
12.66002655,-82.95796000
12.67194748,-83.94558000
12.68386841,-91.01550000
12.69578934,-91.91524000
12.70771027,-90.20676000
12.71963120,-99.41693000
12.73155212,-90.78751000
12.74347305,-90.68817000
12.75539398,-91.81107000
12.76731491,-89.47508000
12.77923584,-90.98012000
12.79115677,-87.19487000
12.80307770,-88.24268000
12.81499863,-95.38527000
12.82691956,-93.33377000
12.83884048,-100.49770000
12.85076141,-98.67344000
12.86268234,-96.62503000
12.87460327,-92.60660000
12.88652420,-92.53815000
12.89844513,-88.95491000
12.91036606,-91.79279000
12.92228699,-84.62968000
12.93420792,-85.67956000
12.94612885,-86.14517000
12.95804977,-85.77545000
12.96997070,-86.74821000
12.98189163,-86.20896000
12.99381256,-84.74841000
13.00573349,-81.52756000
13.01765442,-82.51100000
13.02957535,-93.06982000
13.04149628,-96.66997000
13.05341721,-106.20670000
13.06533813,-90.62336000
13.07725906,-88.84705000
13.08917999,-91.55919000
13.10110092,-85.99082000
13.11302185,-87.07475000
13.12494278,-93.21083000
13.13686371,-90.92396000
13.14878464,-87.83221000
13.16070557,-100.41830000
13.17262650,-84.54624000
13.18454742,-83.40799000
13.19646835,-91.23996000
13.20838928,-100.94760000
13.22031021,-98.95783000
13.23223114,-93.67485000
13.24415207,-91.20950000
13.25607300,-85.77577000
13.26799393,-83.24799000
13.27991486,-86.23080000
13.29183578,-84.97699000
13.30375671,-84.48486000
13.31567764,-86.41150000
13.32759857,-95.19775000
13.33951950,-92.89250000
13.35144043,-83.42653000
13.36336136,-83.66791000
13.37528229,-88.95187000
13.38720322,-95.11712000
13.39912415,-90.09282000
13.41104507,-89.76646000
13.42296600,-96.51418000
13.43488693,-94.91584000
13.44680786,-89.25009000
13.45872879,-86.95838000
13.47064972,-103.92390000
13.48257065,-92.40198000
13.49449158,-98.60722000
13.50641251,-95.67763000
13.51833344,-92.88367000
13.53025436,-86.98996000
13.54217529,-87.43559000
13.55409622,-87.96638000
13.56601715,-87.80784000
13.57793808,-94.50054000
13.58985901,-96.75560000
13.60177994,-93.67651000
13.61370087,-92.19102000
13.62562180,-91.60611000
13.63754272,-95.06501000
13.64946365,-85.75904000
13.66138458,-89.11582000
13.67330551,-92.77428000
13.68522644,-86.72113000
13.69714737,-85.24637000
13.70906830,-92.55260000
13.72098923,-90.47697000
13.73291016,-84.92850000
13.74483109,-84.01775000
13.75675201,-84.48024000
13.76867294,-87.02008000
13.78059387,-97.15294000
13.79251480,-89.87524000
13.80443573,-86.90828000
13.81635666,-94.12548000
13.82827759,-87.44416000
13.84019852,-84.51176000
13.85211945,-89.67230000
13.86404037,-108.56150000
13.87596130,-101.46970000
13.88788223,-93.04890000
13.89980316,-85.67845000
13.91172409,-83.98593000
13.92364502,-85.44369000
13.93556595,-84.85458000
13.94748688,-86.47568000
13.95940781,-86.16547000
13.97132874,-89.40662000
13.98324966,-88.91429000
13.99517059,-81.64962000
14.00709152,-81.95832000
14.01901245,-86.61263000
14.03093338,-89.04301000
14.04285431,-84.48671000
14.05477524,-84.58536000
14.06669617,-85.01083000
14.07861710,-85.04031000
14.09053802,-84.43452000
14.10245895,-83.09151000
14.11437988,-88.76974000
14.12630081,-90.47757000
14.13822174,-88.90496000
14.15014267,-83.90195000
14.16206360,-82.24725000
14.17398453,-89.10306000
14.18590546,-96.35672000
14.19782639,-98.02284000
14.20974731,-92.91380000
14.22166824,-86.96349000
14.23358917,-83.96379000
14.24551010,-84.31354000
14.25743103,-90.28627000
14.26935196,-87.25907000
14.28127289,-83.86641000
14.29319382,-82.34527000
14.30511475,-82.36629000
14.31703568,-87.61909000
14.32895660,-99.41035000
14.34087753,-92.89723000
14.35279846,-89.22621000
14.36471939,-97.21091000
14.37664032,-85.09943000
14.38856125,-98.73422000
14.40048218,-85.06370000
14.41240311,-82.06813000
14.42432404,-83.89161000
14.43624496,-86.26950000
14.44816589,-85.30936000
14.46008682,-87.08836000
14.47200775,-86.63263000
14.48392868,-90.26460000
14.49584961,-95.08775000
14.50777054,-87.74769000
14.51969147,-87.99072000
14.53161240,-97.84737000
14.54353333,-95.09538000
14.55545425,-93.91579000
14.56737518,-102.71970000
14.57929611,-88.06464000
14.59121704,-87.04421000
14.60313797,-88.39517000
14.61505890,-89.19762000
14.62697983,-85.36148000
14.63890076,-88.04913000
14.65082169,-93.19086000
14.66274261,-101.20590000
14.67466354,-94.37450000
14.68658447,-86.49008000
14.69850540,-86.60400000
14.71042633,-91.71013000
14.72234726,-89.89907000
14.73426819,-90.41098000
14.74618912,-98.48107000
14.75811005,-103.11550000
14.77003098,-99.01749000
14.78195190,-90.99903000
14.79387283,-86.36279000
14.80579376,-88.54530000
14.81771469,-89.33723000
14.82963562,-90.81138000
14.84155655,-99.04389000
14.85347748,-96.59680000
14.86539841,-89.80760000
14.87731934,-85.77409000
14.88924026,-86.13773000
14.90116119,-89.97559000
14.91308212,-91.30876000
14.92500305,-89.32446000
14.93692398,-84.97980000
14.94884491,-81.88942000
14.96076584,-83.76098000
14.97268677,-89.33308000
14.98460770,-88.90111000
14.99652863,-87.74231000
15.00844955,-89.97632000
15.02037048,-89.98363000
15.03229141,-93.06036000
15.04421234,-99.91084000
15.05613327,-87.06995000
15.06805420,-84.05533000
15.07997513,-90.23194000
15.09189606,-100.05910000
15.10381699,-91.59270000
15.11573792,-91.83432000
15.12765884,-87.95451000
15.13957977,-84.83722000
15.15150070,-91.30406000
15.16342163,-90.45096000
15.17534256,-84.08341000
15.18726349,-87.11433000
15.19918442,-87.18231000
15.21110535,-92.44415000
15.22302628,-88.32155000
15.23494720,-84.44794000
15.24686813,-85.36676000
15.25878906,-89.70677000
15.27070999,-88.06609000
15.28263092,-88.14099000
15.29455185,-91.65244000
15.30647278,-88.30700000
15.31839371,-87.80722000
15.33031464,-101.43190000
15.34223557,-92.15905000
15.35415649,-88.14996000
15.36607742,-90.89181000
15.37799835,-93.45681000
15.38991928,-109.08790000
15.40184021,-99.94050000
15.41376114,-92.44213000
15.42568207,-93.60182000
15.43760300,-101.87440000
15.44952393,-85.96642000
15.46144485,-85.00011000
15.47336578,-86.06193000
15.48528671,-85.59602000
15.49720764,-88.65298000
15.50912857,-87.92916000
15.52104950,-86.84180000
15.53297043,-88.79123000
15.54489136,-92.99387000
15.55681229,-88.26297000
15.56873322,-82.92874000
15.58065414,-80.40430000
15.59257507,-81.14993000
15.60449600,-84.94067000
15.61641693,-96.16449000
15.62833786,-89.92390000
15.64025879,-85.43191000
15.65217972,-83.98091000
15.66410065,-88.48800000
15.67602158,-89.10099000
15.68794250,-83.68741000
15.69986343,-85.91346000
15.71178436,-83.89597000
15.72370529,-87.91106000
15.73562622,-90.98807000
15.74754715,-83.39875000
15.75946808,-90.70312000
15.77138901,-89.49170000
15.78330994,-86.49171000
15.79523087,-86.68718000
15.80715179,-90.00348000
15.81907272,-85.71850000
15.83099365,-83.13992000
15.84291458,-88.00650000
15.85483551,-104.20650000
15.86675644,-91.16014000
15.87867737,-87.80293000
15.89059830,-88.19350000
15.90251923,-87.61620000
15.91444016,-85.12147000
15.92636108,-84.81502000
15.93828201,-85.22308000
15.95020294,-86.36102000
15.96212387,-88.38921000
15.97404480,-84.47562000
15.98596573,-86.07378000
15.99788666,-102.43620000
16.00980759,-88.64960000
16.02172852,-88.79512000
16.03364944,-90.09274000
16.04557037,-87.90745000
16.05749130,-94.99630000
16.06941223,-94.34315000
16.08133316,-91.28341000
16.09325409,-98.25848000
16.10517502,-104.17180000
16.11709595,-104.42940000
16.12901688,-89.49136000
16.14093781,-90.56917000
16.15285873,-88.03483000
16.16477966,-85.74205000
16.17670059,-85.07108000
16.18862152,-88.22542000
16.20054245,-89.63848000
16.21246338,-95.53001000
16.22438431,-92.72717000
16.23630524,-87.11691000
16.24822617,-86.52444000
16.26014709,-84.81159000
16.27206802,-83.37111000
16.28398895,-87.14612000
16.29590988,-92.90088000
16.30783081,-83.62945000
16.31975174,-84.09105000
16.33167267,-89.30470000
16.34359360,-92.18747000
16.35551453,-95.18903000
16.36743546,-89.79738000
16.37935638,-99.39095000
16.39127731,-91.02361000
16.40319824,-88.35318000
16.41511917,-89.84601000
16.42704010,-88.74525000
16.43896103,-84.82666000
16.45088196,-85.93896000
16.46280289,-89.28497000
16.47472382,-87.01694000
16.48664474,-88.43343000
16.49856567,-91.00540000
16.51048660,-94.67633000
16.52240753,-90.42014000
16.53432846,-87.56400000
16.54624939,-85.88976000
16.55817032,-87.29740000
16.57009125,-89.95906000
16.58201218,-90.84878000
16.59393311,-87.12753000
16.60585403,-84.62201000
16.61777496,-86.69481000
16.62969589,-96.00750000
16.64161682,-90.32889000
16.65353775,-85.76575000
16.66545868,-96.55984000
16.67737961,-94.36967000
16.68930054,-95.18814000
16.70122147,-101.01310000
16.71314240,-97.05281000
16.72506332,-86.99212000
16.73698425,-87.83516000
16.74890518,-96.68507000
16.76082611,-101.80270000
16.77274704,-85.28413000
16.78466797,-83.74149000
16.79658890,-87.63421000
16.80850983,-91.26545000
16.82043076,-100.64060000
16.83235168,-91.14017000
16.84427261,-89.55257000
16.85619354,-87.25607000
16.86811447,-83.02006000
16.88003540,-80.90836000
16.89195633,-81.36942000
16.90387726,-87.72725000
16.91579819,-101.99320000
16.92771912,-93.07126000
16.93964005,-90.50096000
16.95156097,-88.52370000
16.96348190,-99.60876000
16.97540283,-94.28720000
16.98732376,-107.44620000
16.99924469,-95.35449000
17.01116562,-91.06929000
17.02308655,-83.42887000
17.03500748,-84.93694000
17.04692841,-90.58900000
17.05884933,-89.78848000
17.07077026,-89.64196000
17.08269119,-89.50562000
17.09461212,-89.80389000
17.10653305,-89.22836000
17.11845398,-86.29648000
17.13037491,-91.11989000
17.14229584,-87.25453000
17.15421677,-89.39070000
17.16613770,-97.57695000
17.17805862,-99.68175000
17.18997955,-92.47894000
17.20190048,-99.80854000
17.21382141,-85.00652000
17.22574234,-86.97303000
17.23766327,-89.94821000
17.24958420,-81.91807000
17.26150513,-82.94857000
17.27342606,-83.34929000
17.28534698,-82.24803000
17.29726791,-82.66010000
17.30918884,-86.55445000
17.32110977,-88.22330000
17.33303070,-83.92897000
17.34495163,-81.39656000
17.35687256,-81.59288000
17.36879349,-82.96951000
17.38071442,-88.37924000
17.39263535,-97.66717000
17.40455627,-95.02991000
17.41647720,-90.24123000
17.42839813,-85.81585000
17.44031906,-85.19232000
17.45223999,-87.15813000
17.46416092,-92.88301000
17.47608185,-103.87550000
17.48800278,-89.34058000
17.49992371,-89.59649000
17.51184464,-91.64116000
17.52376556,-98.56009000
17.53568649,-90.97366000
17.54760742,-96.34444000
17.55952835,-94.49325000
17.57144928,-88.44119000
17.58337021,-88.59781000
17.59529114,-87.19325000
17.60721207,-91.25931000
17.61913300,-101.35690000
17.63105392,-87.47464000
17.64297485,-89.39612000
17.65489578,-98.96245000
17.66681671,-85.73333000
17.67873764,-83.98222000
17.69065857,-85.74276000
17.70257950,-85.68532000
17.71450043,-91.44479000
17.72642136,-89.26559000
17.73834229,-90.93077000
17.75026321,-89.12849000
17.76218414,-90.11710000
17.77410507,-96.23711000
17.78602600,-89.21198000
17.79794693,-85.41085000
17.80986786,-85.25301000
17.82178879,-85.64925000
17.83370972,-90.58674000
17.84563065,-91.60384000
17.85755157,-86.97801000
17.86947250,-86.05877000
17.88139343,-87.54819000
17.89331436,-91.89281000
17.90523529,-85.80891000
17.91715622,-94.36492000
17.92907715,-93.93014000
17.94099808,-88.57303000
17.95291901,-88.36961000
17.96483994,-88.73199000
17.97676086,-85.38535000
17.98868179,-85.37544000
18.00060272,-85.96024000
18.01252365,-86.58838000
18.02444458,-84.36830000
18.03636551,-81.81898000
18.04828644,-87.41486000
18.06020737,-88.82516000
18.07212830,-83.02748000
18.08404922,-84.30807000
18.09597015,-90.26602000
18.10789108,-86.92114000
18.11981201,-82.74432000
18.13173294,-85.02219000
18.14365387,-94.87583000
18.15557480,-85.73224000
18.16749573,-87.02958000
18.17941666,-96.38612000
18.19133759,-90.10611000
18.20325851,-97.15939000
18.21517944,-95.26770000
18.22710037,-89.63947000
18.23902130,-93.70324000
18.25094223,-85.30640000
18.26286316,-90.95837000
18.27478409,-87.79210000
18.28670502,-85.08472000
18.29862595,-94.53045000
18.31054688,-96.41060000
18.32246780,-91.03844000
18.33438873,-88.97263000
18.34630966,-87.17500000
18.35823059,-91.63127000
18.37015152,-95.37914000
18.38207245,-90.65819000
18.39399338,-91.13700000
18.40591431,-93.96857000
18.41783524,-104.69460000
18.42975616,-107.35210000
18.44167709,-94.70454000
18.45359802,-92.75127000
18.46551895,-91.57339000
18.47743988,-87.58424000
18.48936081,-88.25122000
18.50128174,-82.04583000
18.51320267,-81.63392000
18.52512360,-85.58823000
18.53704453,-86.18164000
18.54896545,-88.87138000
18.56088638,-92.89834000
18.57280731,-90.92165000
18.58472824,-86.76666000
18.59664917,-88.66702000
18.60857010,-93.84761000
18.62049103,-87.47494000
18.63241196,-82.58513000
18.64433289,-85.32050000
18.65625381,-90.77551000
18.66817474,-87.37212000
18.68009567,-89.31703000
18.69201660,-91.71158000
18.70393753,-96.31329000
18.71585846,-104.66720000
18.72777939,-93.16611000
18.73970032,-87.48992000
18.75162125,-85.07051000
18.76354218,-81.14902000
18.77546310,-79.45560000
18.78738403,-81.75620000
18.79930496,-92.78859000
18.81122589,-89.50136000
18.82314682,-85.35834000
18.83506775,-87.13409000
18.84698868,-94.15589000
18.85890961,-114.99080000
18.87083054,-91.14060000
18.88275146,-83.46472000
18.89467239,-81.80543000
18.90659332,-84.83774000
18.91851425,-88.27715000
18.93043518,-82.00601000
18.94235611,-80.81153000
18.95427704,-83.80585000
18.96619797,-90.85353000
18.97811890,-93.95941000
18.99003983,-90.45850000
19.00196075,-92.17436000
19.01388168,-92.65625000
19.02580261,-90.24200000
19.03772354,-88.38116000
19.04964447,-91.22548000
19.06156540,-90.78925000
19.07348633,-86.81981000
19.08540726,-86.33233000
19.09732819,-92.17406000
19.10924911,-85.45432000
19.12117004,-84.18433000
19.13309097,-85.25010000
19.14501190,-93.07959000
19.15693283,-88.25327000
19.16885376,-83.72737000
19.18077469,-85.94904000
19.19269562,-93.58646000
19.20461655,-90.20287000
19.21653748,-96.00165000
19.22845840,-102.82060000
19.24037933,-91.44695000
19.25230026,-85.09864000
19.26422119,-87.57970000
19.27614212,-87.99088000
19.28806305,-85.03230000
19.29998398,-83.37788000
19.31190491,-88.66248000
19.32382584,-93.16642000
19.33574677,-86.85192000
19.34766769,-85.07119000
19.35958862,-86.31294000
19.37150955,-92.21858000
19.38343048,-86.36983000
19.39535141,-84.21632000
19.40727234,-84.51416000
19.41919327,-84.47482000
19.43111420,-85.35452000
19.44303513,-89.57284000
19.45495605,-90.91315000
19.46687698,-95.19037000
19.47879791,-90.41348000
19.49071884,-88.22613000
19.50263977,-91.98590000
19.51456070,-85.69046000
19.52648163,-85.82838000
19.53840256,-83.46887000
19.55032349,-83.24515000
19.56224442,-89.10779000
19.57416534,-92.95715000
19.58608627,-106.95350000
19.59800720,-89.25648000
19.60992813,-87.71223000
19.62184906,-91.38510000
19.63376999,-87.71211000
19.64569092,-90.32919000
19.65761185,-91.55843000
19.66953278,-94.06487000
19.68145370,-94.98512000
19.69337463,-96.30555000
19.70529556,-91.36606000
19.71721649,-89.10027000
19.72913742,-85.34364000
19.74105835,-82.52148000
19.75297928,-82.26184000
19.76490021,-86.73174000
19.77682114,-93.71623000
19.78874207,-90.55198000
19.80066299,-86.71547000
19.81258392,-83.08257000
19.82450485,-81.96069000
19.83642578,-84.61890000
19.84834671,-86.77942000
19.86026764,-86.13420000
19.87218857,-85.13917000
19.88410950,-85.20555000
19.89603043,-89.13044000
19.90795135,-93.18492000
19.91987228,-88.25397000
19.93179321,-87.96716000
19.94371414,-87.37807000
19.95563507,-88.38731000
19.96755600,-94.45532000
19.97947693,-118.94340000
19.99139786,-93.37379000
20.00331879,-87.39026000
20.01523972,-93.15667000
20.02716064,-100.01870000
20.03908157,-91.88629000
20.05100250,-95.62228000
20.06292343,-97.98799000
20.07484436,-89.57039000
20.08676529,-91.51540000
20.09868622,-99.62509000
20.11060715,-97.87530000
20.12252808,-90.09573000
20.13444901,-98.17776000
20.14636993,-92.25623000
20.15829086,-91.04789000
20.17021179,-91.23508000
20.18213272,-86.48027000
20.19405365,-85.65422000
20.20597458,-86.57225000
20.21789551,-90.68510000
20.22981644,-94.40527000
20.24173737,-87.63806000
20.25365829,-87.27790000
20.26557922,-85.03976000
20.27750015,-85.17751000
20.28942108,-89.27644000
20.30134201,-89.24313000
20.31326294,-90.98245000
20.32518387,-93.52845000
20.33710480,-86.22425000
20.34902573,-90.68567000
20.36094666,-97.93459000
20.37286758,-90.60253000
20.38478851,-95.13974000
20.39670944,-94.99919000
20.40863037,-91.33173000
20.42055130,-89.64212000
20.43247223,-89.45442000
20.44439316,-85.07148000
20.45631409,-82.21666000
20.46823502,-83.38059000
20.48015594,-88.64229000
20.49207687,-85.69913000
20.50399780,-83.19947000
20.51591873,-83.79303000
20.52783966,-83.75831000
20.53976059,-82.17452000
20.55168152,-84.15790000
20.56360245,-92.56317000
20.57552338,-88.76036000
20.58744431,-86.68443000
20.59936523,-83.92570000
20.61128616,-84.26389000
20.62320709,-86.37048000
20.63512802,-86.38859000
20.64704895,-86.41324000
20.65896988,-88.83009000
20.67089081,-88.43018000
20.68281174,-84.60720000
20.69473267,-87.59933000
20.70665359,-93.85555000
20.71857452,-89.77681000
20.73049545,-116.49680000
20.74241638,-93.55389000
20.75433731,-85.04472000
20.76625824,-80.60420000
20.77817917,-85.00934000
20.79010010,-92.88235000
20.80202103,-85.23438000
20.81394196,-85.28911000
20.82586288,-84.05933000
20.83778381,-85.26935000
20.84970474,-89.82208000
20.86162567,-94.97768000
20.87354660,-87.46475000
20.88546753,-85.88021000
20.89738846,-86.95904000
20.90930939,-85.46878000
20.92123032,-83.18877000
20.93315125,-85.27463000
20.94507217,-96.34445000
20.95699310,-88.74736000
20.96891403,-86.54848000
20.98083496,-88.11758000
20.99275589,-89.82538000
21.00467682,-90.20998000
21.01659775,-92.75064000
21.02851868,-91.24014000
21.04043961,-90.33634000
21.05236053,-94.55120000
21.06428146,-98.16844000
21.07620239,-87.99979000
21.08812332,-85.23887000
21.10004425,-84.97682000
21.11196518,-91.80576000
21.12388611,-94.00470000
21.13580704,-95.75883000
21.14772797,-100.09920000
21.15964890,-100.58790000
21.17156982,-95.49126000
21.18349075,-91.03211000
21.19541168,-88.19045000
21.20733261,-93.61855000
21.21925354,-101.65930000
21.23117447,-93.82581000
21.24309540,-90.14452000
21.25501633,-97.55934000
21.26693726,-92.83103000
21.27885818,-89.80986000
21.29077911,-88.30698000
21.30270004,-89.20251000
21.31462097,-85.75698000
21.32654190,-84.96489000
21.33846283,-82.79405000
21.35038376,-82.08002000
21.36230469,-86.85627000
21.37422562,-87.09130000
21.38614655,-83.91852000
21.39806747,-86.50124000
21.40998840,-85.83018000
21.42190933,-83.73466000
21.43383026,-83.93707000
21.44575119,-85.02244000
21.45767212,-93.27739000
21.46959305,-93.09243000
21.48151398,-89.81934000
21.49343491,-90.35876000
21.50535583,-91.99744000
21.51727676,-88.07701000
21.52919769,-90.70541000
21.54111862,-90.31894000
21.55303955,-87.37225000
21.56496048,-87.66852000
21.57688141,-99.97513000
21.58880234,-88.15690000
21.60072327,-84.37568000
21.61264420,-83.79844000
21.62456512,-88.05055000
21.63648605,-94.40741000
21.64840698,-101.84670000
21.66032791,-92.95206000
21.67224884,-86.28310000
21.68416977,-86.76247000
21.69609070,-84.33335000
21.70801163,-84.29395000
21.71993256,-84.96321000
21.73185349,-90.11883000
21.74377441,-92.91649000
21.75569534,-95.35534000
21.76761627,-107.49840000
21.77953720,-100.11610000
21.79145813,-90.00365000
21.80337906,-91.55766000
21.81529999,-95.00560000
21.82722092,-92.84247000
21.83914185,-92.62180000
21.85106277,-91.70393000
21.86298370,-85.44640000
21.87490463,-85.91705000
21.88682556,-94.96777000
21.89874649,-103.42880000
21.91066742,-94.94495000
21.92258835,-87.95860000
21.93450928,-91.19809000
21.94643021,-96.84823000
21.95835114,-93.85608000
21.97027206,-100.67280000
21.98219299,-91.51191000
21.99411392,-93.20293000
22.00603485,-89.45988000
22.01795578,-99.83822000
22.02987671,-89.96196000
22.04179764,-85.49155000
22.05371857,-84.45694000
22.06563950,-84.66851000
22.07756042,-84.90808000
22.08948135,-84.86852000
22.10140228,-102.11120000
22.11332321,-85.95859000
22.12524414,-87.68605000
22.13716507,-88.10174000
22.14908600,-86.22493000
22.16100693,-96.48032000
22.17292786,-86.77299000
22.18484879,-82.27341000
22.19676971,-84.36163000
22.20869064,-97.18950000
22.22061157,-92.09735000
22.23253250,-87.84050000
22.24445343,-85.27669000
22.25637436,-87.62882000
22.26829529,-91.07658000
22.28021622,-88.07656000
22.29213715,-89.41452000
22.30405807,-87.64957000
22.31597900,-86.15262000
22.32789993,-90.84678000
22.33982086,-91.25670000
22.35174179,-86.15401000
22.36366272,-84.43857000
22.37558365,-87.18368000
22.38750458,-91.81097000
22.39942551,-110.68750000
22.41134644,-87.73006000
22.42326736,-84.53456000
22.43518829,-88.92844000
22.44710922,-99.14639000
22.45903015,-99.46258000
22.47095108,-90.71488000
22.48287201,-88.14038000
22.49479294,-94.55969000
22.50671387,-90.05508000
22.51863480,-84.40461000
22.53055573,-84.23247000
22.54247665,-89.88303000
22.55439758,-94.48887000
22.56631851,-89.89101000
22.57823944,-91.02589000
22.59016037,-90.38377000
22.60208130,-90.88573000
22.61400223,-99.69571000
22.62592316,-96.33671000
22.63784409,-95.42558000
22.64976501,-91.93404000
22.66168594,-86.25911000
22.67360687,-86.57441000
22.68552780,-88.79878000
22.69744873,-87.47341000
22.70936966,-88.40408000
22.72129059,-87.08253000
22.73321152,-86.39139000
22.74513245,-94.59654000
22.75705338,-88.94868000
22.76897430,-83.82880000
22.78089523,-87.91571000
22.79281616,-84.90277000
22.80473709,-85.06779000
22.81665802,-87.32654000
22.82857895,-95.45139000
22.84049988,-89.21821000
22.85242081,-87.13139000
22.86434174,-86.22620000
22.87626266,-87.40079000
22.88818359,-101.30670000
22.90010452,-89.17835000
22.91202545,-86.74171000
22.92394638,-86.63033000
22.93586731,-92.72643000
22.94778824,-93.85303000
22.95970917,-87.13284000
22.97163010,-87.68326000
22.98355103,-87.25148000
22.99547195,-86.58630000
23.00739288,-86.90070000
23.01931381,-85.17107000
23.03123474,-86.45222000
23.04315567,-94.66621000
23.05507660,-91.21712000
23.06699753,-87.16195000
23.07891846,-88.46946000
23.09083939,-88.85011000
23.10276031,-89.78062000
23.11468124,-89.08324000
23.12660217,-86.92607000
23.13852310,-90.49483000
23.15044403,-90.72501000
23.16236496,-88.32016000
23.17428589,-87.86284000
23.18620682,-89.27840000
23.19812775,-92.24948000
23.21004868,-90.29556000
23.22196960,-87.46495000
23.23389053,-91.86536000
23.24581146,-87.45583000
23.25773239,-84.56721000
23.26965332,-102.61090000
23.28157425,-87.61074000
23.29349518,-85.27675000
23.30541611,-88.13486000
23.31733704,-105.44220000
23.32925797,-111.80700000
23.34117889,-92.89860000
23.35309982,-89.35194000
23.36502075,-92.00430000
23.37694168,-93.69089000
23.38886261,-93.54285000
23.40078354,-99.77432000
23.41270447,-95.06026000
23.42462540,-89.40884000
23.43654633,-86.43822000
23.44846725,-87.53066000
23.46038818,-90.37083000
23.47230911,-88.57365000
23.48423004,-92.74542000
23.49615097,-110.35710000
23.50807190,-93.63824000
23.51999283,-82.95108000
23.53191376,-82.93292000
23.54383469,-87.48669000
23.55575562,-86.34950000
23.56767654,-91.38810000
23.57959747,-93.03880000
23.59151840,-101.17400000
23.60343933,-87.88796000
23.61536026,-84.05293000
23.62728119,-83.24508000
23.63920212,-81.93474000
23.65112305,-84.66911000
23.66304398,-89.36260000
23.67496490,-87.48048000
23.68688583,-86.60702000
23.69880676,-89.08833000
23.71072769,-94.86678000
23.72264862,-88.26793000
23.73456955,-87.66890000
23.74649048,-89.47940000
23.75841141,-92.33650000
23.77033234,-97.05482000
23.78225327,-92.48155000
23.79417419,-96.24696000
23.80609512,-90.63496000
23.81801605,-92.71817000
23.82993698,-90.05332000
23.84185791,-92.98135000
23.85377884,-105.08840000
23.86569977,-91.53586000
23.87762070,-86.95082000
23.88954163,-86.18519000
23.90146255,-89.01707000
23.91338348,-97.34343000
23.92530441,-83.62965000
23.93722534,-81.76548000
23.94914627,-87.85506000
23.96106720,-92.17430000
23.97298813,-97.13904000
23.98490906,-87.84639000
23.99682999,-83.00220000
24.00875092,-91.88176000
24.02067184,-85.82356000
24.03259277,-82.46621000
24.04451370,-88.21098000
24.05643463,-100.88460000
24.06835556,-94.99844000
24.08027649,-90.47849000
24.09219742,-102.12770000
24.10411835,-88.32366000
24.11603928,-86.33255000
24.12796021,-91.55385000
24.13988113,-88.79470000
24.15180206,-92.56626000
24.16372299,-85.09612000
24.17564392,-81.88050000
24.18756485,-82.12543000
24.19948578,-83.64410000
24.21140671,-87.28980000
24.22332764,-91.63214000
24.23524857,-95.04211000
24.24716949,-96.54756000
24.25909042,-93.02993000
24.27101135,-89.20079000
24.28293228,-110.65850000
24.29485321,-89.90478000
24.30677414,-99.50519000
24.31869507,-83.56620000
24.33061600,-82.57010000
24.34253693,-91.79176000
24.35445786,-93.97198000
24.36637878,-90.65930000
24.37829971,-95.65810000
24.39022064,-90.00978000
24.40214157,-89.08707000
24.41406250,-104.52170000
24.42598343,-96.91949000
24.43790436,-99.97192000
24.44982529,-91.90753000
24.46174622,-97.18716000
24.47366714,-88.49117000
24.48558807,-84.86882000
24.49750900,-87.22782000
24.50942993,-95.70611000
24.52135086,-84.53339000
24.53327179,-88.20827000
24.54519272,-94.15864000
24.55711365,-91.96590000
24.56903458,-86.87862000
24.58095551,-85.66059000
24.59287643,-87.04721000
24.60479736,-86.87146000
24.61671829,-89.36013000
24.62863922,-93.35825000
24.64056015,-89.53818000
24.65248108,-85.41454000
24.66440201,-83.81705000
24.67632294,-84.97801000
24.68824387,-92.51702000
24.70016479,-85.93082000
24.71208572,-81.63573000
24.72400665,-80.82223000
24.73592758,-82.74796000
24.74784851,-91.26933000
24.75976944,-87.25880000
24.77169037,-87.98727000
24.78361130,-82.84045000
24.79553223,-86.43246000
24.80745316,-100.48390000
24.81937408,-91.96255000
24.83129501,-92.29176000
24.84321594,-88.79479000
24.85513687,-86.24233000
24.86705780,-90.86377000
24.87897873,-83.32985000
24.89089966,-81.57146000
24.90282059,-81.48592000
24.91474152,-82.55657000
24.92666245,-89.14993000
24.93858337,-93.57231000
24.95050430,-89.84572000
24.96242523,-90.76717000
24.97434616,-97.62588000
24.98626709,-106.08390000
24.99818802,-96.16319000
25.01010895,-90.91461000
25.02202988,-95.10228000
25.03395081,-90.53234000
25.04587173,-84.96441000
25.05779266,-82.84290000
25.06971359,-83.65332000
25.08163452,-90.50133000
25.09355545,-95.37921000
25.10547638,-90.04284000
25.11739731,-89.00035000
25.12931824,-96.46805000
25.14123917,-100.82570000
25.15316010,-101.40080000
25.16508102,-90.80763000
25.17700195,-89.99057000
25.18892288,-97.27131000
25.20084381,-99.30537000
25.21276474,-96.94382000
25.22468567,-95.44011000
25.23660660,-93.92442000
25.24852753,-94.40288000
25.26044846,-102.56040000
25.27236938,-89.50234000
25.28429031,-100.63780000
25.29621124,-86.87215000
25.30813217,-87.48149000
25.32005310,-97.26804000
25.33197403,-92.26770000
25.34389496,-84.97639000
25.35581589,-83.38062000
25.36773682,-84.48185000
25.37965775,-93.05905000
25.39157867,-91.93199000
25.40349960,-88.82884000
25.41542053,-88.99284000
25.42734146,-88.11450000
25.43926239,-88.21275000
25.45118332,-92.38209000
25.46310425,-102.17570000
25.47502518,-92.33646000
25.48694611,-92.86427000
25.49886703,-92.14759000
25.51078796,-90.58760000
25.52270889,-88.17708000
25.53462982,-96.42747000
25.54655075,-111.38600000
25.55847168,-95.17773000
25.57039261,-88.96529000
25.58231354,-86.65950000
25.59423447,-82.98299000
25.60615540,-81.86411000
25.61807632,-82.52274000
25.62999725,-88.51479000
25.64191818,-93.36928000
25.65383911,-86.05070000
25.66576004,-88.33705000
25.67768097,-91.33289000
25.68960190,-90.98940000
25.70152283,-91.57605000
25.71344376,-94.88376000
25.72536469,-92.58971000
25.73728561,-93.99301000
25.74920654,-90.16929000
25.76112747,-85.15643000
25.77304840,-82.01584000
25.78496933,-88.14163000
25.79689026,-112.61150000
25.80881119,-92.82688000
25.82073212,-92.42333000
25.83265305,-95.27893000
25.84457397,-88.00259000
25.85649490,-91.61277000
25.86841583,-99.41795000
25.88033676,-90.98344000
25.89225769,-87.13668000
25.90417862,-86.79417000
25.91609955,-85.99763000
25.92802048,-86.63823000
25.93994141,-89.33743000
25.95186234,-92.81871000
25.96378326,-96.62537000
25.97570419,-91.59648000
25.98762512,-87.05081000
25.99954605,-90.83228000
26.01146698,-87.59885000
26.02338791,-87.08968000
26.03530884,-87.29878000
26.04722977,-85.88261000
26.05915070,-80.60355000
26.07107162,-78.99284000
26.08299255,-81.03400000
26.09491348,-85.55505000
26.10683441,-95.53955000
26.11875534,-96.48958000
26.13067627,-94.38569000
26.14259720,-89.22009000
26.15451813,-88.18429000
26.16643906,-88.61904000
26.17835999,-89.39338000
26.19028091,-89.61229000
26.20220184,-91.27000000
26.21412277,-90.59653000
26.22604370,-91.66292000
26.23796463,-88.42833000
26.24988556,-84.06984000
26.26180649,-82.49879000
26.27372742,-89.85962000
26.28564835,-94.48701000
26.29756927,-93.94633000
26.30949020,-94.50241000
26.32141113,-87.79222000
26.33333206,-84.42116000
26.34525299,-83.17125000
26.35717392,-85.99130000
26.36909485,-90.38998000
26.38101578,-91.57134000
26.39293671,-91.55608000
26.40485764,-92.66137000
26.41677856,-91.71544000
26.42869949,-116.36340000
26.44062042,-96.08117000
26.45254135,-93.85857000
26.46446228,-85.35629000
26.47638321,-87.68699000
26.48830414,-92.62905000
26.50022507,-85.42395000
26.51214600,-88.60226000
26.52406693,-87.45345000
26.53598785,-87.58009000
26.54790878,-92.42247000
26.55982971,-93.80115000
26.57175064,-85.98946000
26.58367157,-92.17674000
26.59559250,-84.24933000
26.60751343,-82.83206000
26.61943436,-90.40709000
26.63135529,-92.06683000
26.64327621,-93.82890000
26.65519714,-94.18463000
26.66711807,-87.95714000
26.67903900,-90.18689000
26.69095993,-86.14685000
26.70288086,-88.91559000
26.71480179,-85.94666000
26.72672272,-89.44175000
26.73864365,-96.24688000
26.75056458,-101.83030000
26.76248550,-84.04955000
26.77440643,-83.72665000
26.78632736,-85.16997000
26.79824829,-89.94348000
26.81016922,-90.51512000
26.82209015,-89.27736000
26.83401108,-88.77980000
26.84593201,-85.89415000
26.85785294,-84.73663000
26.86977386,-90.20598000
26.88169479,-92.63828000
26.89361572,-88.13550000
26.90553665,-89.91052000
26.91745758,-95.38491000
26.92937851,-92.61920000
26.94129944,-85.69124000
26.95322037,-97.63725000
26.96514130,-84.64491000
26.97706223,-81.57419000
26.98898315,-81.24210000
27.00090408,-83.02254000
27.01282501,-88.75813000
27.02474594,-91.63603000
27.03666687,-84.37938000
27.04858780,-83.59306000
27.06050873,-86.23650000
27.07242966,-84.80045000
27.08435059,-86.81991000
27.09627151,-90.51529000
27.10819244,-93.06983000
27.12011337,-90.07326000
27.13203430,-91.34512000
27.14395523,-97.95131000
27.15587616,-89.74277000
27.16779709,-87.01481000
27.17971802,-91.47496000
27.19163895,-96.75221000
27.20355988,-90.26018000
27.21548080,-83.24536000
27.22740173,-83.42348000
27.23932266,-90.76778000
27.25124359,-96.96718000
27.26316452,-92.75268000
27.27508545,-92.62718000
27.28700638,-91.39794000
27.29892731,-87.52387000
27.31084824,-90.91397000
27.32276917,-92.77109000
27.33469009,-88.93779000
27.34661102,-88.25328000
27.35853195,-98.53606000
27.37045288,-95.66840000
27.38237381,-94.33715000
27.39429474,-93.13425000
27.40621567,-90.65856000
27.41813660,-92.98932000
27.43005753,-92.54218000
27.44197845,-88.86337000
27.45389938,-92.07398000
27.46582031,-99.62511000
27.47774124,-99.27522000
27.48966217,-92.08925000
27.50158310,-94.67339000
27.51350403,-94.87825000
27.52542496,-84.22375000
27.53734589,-80.27083000
27.54926682,-84.94302000
27.56118774,-90.48418000
27.57310867,-87.52345000
27.58502960,-85.95183000
27.59695053,-88.20563000
27.60887146,-89.71721000
27.62079239,-86.37977000
27.63271332,-84.11652000
27.64463425,-92.72108000
27.65655518,-93.01781000
27.66847610,-92.46069000
27.68039703,-92.52995000
27.69231796,-88.05444000
27.70423889,-85.61002000
27.71615982,-83.95232000
27.72808075,-84.97351000
27.74000168,-94.06991000
27.75192261,-90.56776000
27.76384354,-86.86379000
27.77576447,-89.47421000
27.78768539,-87.23206000
27.79960632,-93.46884000
27.81152725,-86.48010000
27.82344818,-85.86549000
27.83536911,-91.25592000
27.84729004,-87.40531000
27.85921097,-94.77107000
27.87113190,-92.92831000
27.88305283,-97.56697000
27.89497375,-85.17958000
27.90689468,-83.44588000
27.91881561,-91.12359000
27.93073654,-96.22072000
27.94265747,-97.45232000
27.95457840,-86.10994000
27.96649933,-87.45898000
27.97842026,-94.66237000
27.99034119,-95.83434000
28.00226212,-99.93318000
28.01418304,-87.98934000
28.02610397,-88.51711000
28.03802490,-88.72802000
28.04994583,-90.50777000
28.06186676,-82.38643000
28.07378769,-82.82933000
28.08570862,-91.90644000
28.09762955,-96.05663000
28.10955048,-96.54823000
28.12147141,-88.60313000
28.13339233,-89.12350000
28.14531326,-92.18991000
28.15723419,-101.97340000
28.16915512,-86.44640000
28.18107605,-86.77010000
28.19299698,-92.25902000
28.20491791,-92.57201000
28.21683884,-90.96114000
28.22875977,-95.54417000
28.24068069,-91.47602000
28.25260162,-86.63435000
28.26452255,-83.29762000
28.27644348,-88.39185000
28.28836441,-87.01801000
28.30028534,-81.93994000
28.31220627,-81.43895000
28.32412720,-85.05920000
28.33604813,-101.83620000
28.34796906,-91.64496000
28.35988998,-83.30521000
28.37181091,-82.14075000
28.38373184,-85.23952000
28.39565277,-92.62523000
28.40757370,-84.21726000
28.41949463,-81.93172000
28.43141556,-84.50593000
28.44333649,-86.00095000
28.45525742,-82.75328000
28.46717834,-85.90688000
28.47909927,-109.33060000
28.49102020,-92.38036000
28.50294113,-106.48010000
28.51486206,-85.33751000
28.52678299,-82.74472000
28.53870392,-85.26551000
28.55062485,-86.91277000
28.56254578,-92.33690000
28.57446671,-85.44491000
28.58638763,-82.23336000
28.59830856,-84.86751000
28.61022949,-93.49306000
28.62215042,-91.14898000
28.63407135,-85.05210000
28.64599228,-81.00308000
28.65791321,-81.31023000
28.66983414,-84.82570000
28.68175507,-92.61696000
28.69367599,-109.18240000
28.70559692,-94.19478000
28.71751785,-88.44896000
28.72943878,-86.59769000
28.74135971,-86.54097000
28.75328064,-89.87688000
28.76520157,-100.56660000
28.77712250,-94.56844000
28.78904343,-99.25678000
28.80096436,-89.06216000
28.81288528,-86.36459000
28.82480621,-87.81964000
28.83672714,-86.74864000
28.84864807,-84.95098000
28.86056900,-83.90110000
28.87248993,-85.58664000
28.88441086,-87.53345000
28.89633179,-87.68924000
28.90825272,-87.48733000
28.92017365,-82.99493000
28.93209457,-80.97442000
28.94401550,-82.25933000
28.95593643,-90.14304000
28.96785736,-87.14632000
28.97977829,-83.09947000
28.99169922,-82.46754000
29.00362015,-83.96558000
29.01554108,-86.77654000
29.02746201,-92.03365000
29.03938293,-95.13127000
29.05130386,-96.01891000
29.06322479,-88.98788000
29.07514572,-85.86028000
29.08706665,-88.96061000
29.09898758,-89.20932000
29.11090851,-88.02624000
29.12282944,-95.08347000
29.13475037,-89.61134000
29.14667130,-88.52084000
29.15859222,-87.77223000
29.17051315,-88.91788000
29.18243408,-88.09102000
29.19435501,-87.80850000
29.20627594,-91.08876000
29.21819687,-93.81893000
29.23011780,-83.72097000
29.24203873,-86.51134000
29.25395966,-88.73148000
29.26588058,-86.52655000
29.27780151,-85.69231000
29.28972244,-83.50322000
29.30164337,-80.51983000
29.31356430,-79.44754000
29.32548523,-80.51256000
29.33740616,-83.88625000
29.34932709,-87.25738000
29.36124802,-83.61696000
29.37316895,-85.75905000
29.38508987,-94.46692000
29.39701080,-96.65804000
29.40893173,-94.22279000
29.42085266,-83.27928000
29.43277359,-79.26149000
29.44469452,-79.27587000
29.45661545,-82.73228000
29.46853638,-86.14925000
29.48045731,-91.86787000
29.49237823,-92.86610000
29.50429916,-88.03109000
29.51622009,-84.94223000
29.52814102,-91.03012000
29.54006195,-95.58337000
29.55198288,-96.03220000
29.56390381,-91.00758000
29.57582474,-104.24020000
29.58774567,-90.56312000
29.59966660,-88.43475000
29.61158752,-84.57455000
29.62350845,-83.18474000
29.63542938,-85.77793000
29.64735031,-84.55823000
29.65927124,-80.09276000
29.67119217,-78.82825000
29.68311310,-81.17279000
29.69503403,-84.98967000
29.70695496,-86.68134000
29.71887589,-87.82179000
29.73079681,-88.11777000
29.74271774,-91.56509000
29.75463867,-93.56570000
29.76655960,-105.32210000
29.77848053,-102.63500000
29.79040146,-91.71278000
29.80232239,-85.19518000
29.81424332,-83.03864000
29.82616425,-80.93512000
29.83808517,-81.02706000
29.85000610,-83.00385000
29.86192703,-84.86100000
29.87384796,-82.69237000
29.88576889,-79.59548000
29.89768982,-82.74047000
29.90961075,-89.82040000
29.92153168,-89.25286000
29.93345261,-88.00785000
29.94537354,-90.97157000
29.95729446,-86.05198000
29.96921539,-89.24857000
29.98113632,-105.03140000
29.99305725,-112.27910000
30.00497818,-102.00810000
30.01689911,-95.20700000
30.02882004,-87.95342000
30.04074097,-88.27188000
30.05266190,-99.29811000
30.06458282,-102.54850000
30.07650375,-91.03876000
30.08842468,-86.96843000
30.10034561,-87.78526000
30.11226654,-95.13757000
30.12418747,-94.48836000
30.13610840,-85.21216000
30.14802933,-85.56946000
30.15995026,-92.09922000
30.17187119,-87.57306000
30.18379211,-83.39944000
30.19571304,-89.05482000
30.20763397,-91.37437000
30.21955490,-87.93060000
30.23147583,-92.11968000
30.24339676,-95.12308000
30.25531769,-99.29297000
30.26723862,-90.10571000
30.27915955,-92.01089000
30.29108047,-89.51996000
30.30300140,-88.78495000
30.31492233,-87.39259000
30.32684326,-87.49068000
30.33876419,-90.43916000
30.35068512,-87.94295000
30.36260605,-84.37016000
30.37452698,-84.18159000
30.38644791,-83.81367000
30.39836884,-83.31061000
30.41028976,-82.42917000
30.42221069,-85.67421000
30.43413162,-89.29182000
30.44605255,-100.72620000
30.45797348,-89.88486000
30.46989441,-85.48976000
30.48181534,-86.63917000
30.49373627,-85.40196000
30.50565720,-82.69281000
30.51757813,-84.03512000
30.52949905,-90.73550000
30.54141998,-89.28871000
30.55334091,-88.19757000
30.56526184,-89.89643000
30.57718277,-90.09746000
30.58910370,-91.40031000
30.60102463,-89.86958000
30.61294556,-86.99347000
30.62486649,-86.52004000
30.63678741,-89.01328000
30.64870834,-94.14387000
30.66062927,-89.53069000
30.67255020,-89.81673000
30.68447113,-87.55341000
30.69639206,-92.39429000
30.70831299,-101.17940000
30.72023392,-96.59827000
30.73215485,-89.85004000
30.74407578,-86.77884000
30.75599670,-90.16788000
30.76791763,-90.58422000
30.77983856,-90.72821000
30.79175949,-94.70854000
30.80368042,-91.47656000
30.81560135,-88.51535000
30.82752228,-100.36550000
30.83944321,-88.66936000
30.85136414,-87.65816000
30.86328506,-101.93160000
30.87520599,-89.04998000
30.88712692,-85.62389000
30.89904785,-87.87929000
30.91096878,-92.19399000
30.92288971,-84.59647000
30.93481064,-82.68021000
30.94673157,-84.58652000
30.95865250,-88.93407000
30.97057343,-89.15932000
30.98249435,-84.32552000
30.99441528,-87.63175000
31.00633621,-83.37630000
31.01825714,-80.92223000
31.03017807,-81.62000000
31.04209900,-84.26466000
31.05401993,-90.60429000
31.06594086,-87.74644000
31.07786179,-88.76665000
31.08978271,-95.10192000
31.10170364,-99.88753000
31.11362457,-96.19094000
31.12554550,-88.62141000
31.13746643,-85.50406000
31.14938736,-84.10669000
31.16130829,-82.40043000
31.17322922,-83.70179000
31.18515015,-90.16534000
31.19707108,-89.53163000
31.20899200,-91.57047000
31.22091293,-96.66858000
31.23283386,-87.86889000
31.24475479,-84.93027000
31.25667572,-88.30032000
31.26859665,-100.96120000
31.28051758,-102.76700000
31.29243851,-101.66410000
31.30435944,-108.10250000
31.31628036,-94.00745000
31.32820129,-89.16901000
31.34012222,-87.02210000
31.35204315,-86.10562000
31.36396408,-93.57397000
31.37588501,-92.85190000
31.38780594,-88.46455000
31.39972687,-86.95983000
31.41164780,-85.83177000
31.42356873,-82.84872000
31.43548965,-84.90996000
31.44741058,-90.02193000
31.45933151,-94.12487000
31.47125244,-96.90636000
31.48317337,-89.33316000
31.49509430,-90.07656000
31.50701523,-90.28944000
31.51893616,-92.64756000
31.53085709,-94.89635000
31.54277802,-88.23968000
31.55469894,-88.20879000
31.56661987,-93.30460000
31.57854080,-98.12768000
31.59046173,-88.35611000
31.60238266,-89.27306000
31.61430359,-96.36571000
31.62622452,-90.97301000
31.63814545,-115.92940000
31.65006638,-87.93748000
31.66198730,-86.29649000
31.67390823,-92.81045000
31.68582916,-91.20410000
31.69775009,-99.31444000
31.70967102,-87.89906000
31.72159195,-89.02963000
31.73351288,-90.59239000
31.74543381,-87.35220000
31.75735474,-88.22350000
31.76927567,-88.23560000
31.78119659,-93.22369000
31.79311752,-96.48988000
31.80503845,-91.10262000
31.81695938,-88.23120000
31.82888031,-92.36539000
31.84080124,-94.21793000
31.85272217,-92.18147000
31.86464310,-86.79007000
31.87656403,-84.25896000
31.88848495,-86.48140000
31.90040588,-94.72126000
31.91232681,-94.14536000
31.92424774,-94.09581000
31.93616867,-105.40230000
31.94808960,-101.45360000
31.96001053,-93.80856000
31.97193146,-87.39629000
31.98385239,-88.26563000
31.99577332,-88.24001000
32.00769424,-101.97630000
32.01961517,-90.43182000
32.03153610,-88.60779000
32.04345703,-97.68010000
32.05537796,-93.68905000
32.06729889,-99.61510000
32.07921982,-88.51016000
32.09114075,-87.04265000
32.10306168,-93.12782000
32.11498260,-91.55742000
32.12690353,-91.28967000
32.13882446,-95.18104000
32.15074539,-98.41927000
32.16266632,-86.55067000
32.17458725,-87.09797000
32.18650818,-91.98219000
32.19842911,-95.32027000
32.21035004,-89.30469000
32.22227097,-84.92386000
32.23419189,-85.65118000
32.24611282,-90.78964000
32.25803375,-97.93396000
32.26995468,-94.85789000
32.28187561,-89.15672000
32.29379654,-87.22150000
32.30571747,-85.84285000
32.31763840,-89.23577000
32.32955933,-102.60120000
32.34148026,-87.42260000
32.35340118,-87.10043000
32.36532211,-99.41556000
32.37724304,-88.02744000
32.38916397,-87.17599000
32.40108490,-96.37254000
32.41300583,-84.91060000
32.42492676,-82.89900000
32.43684769,-82.47119000
32.44876862,-84.19099000
32.46068954,-100.36200000
32.47261047,-91.46503000
32.48453140,-103.32540000
32.49645233,-90.62142000
32.50837326,-90.74752000
32.52029419,-105.56850000
32.53221512,-90.43524000
32.54413605,-89.57635000
32.55605698,-92.03246000
32.56797791,-108.56970000
32.57989883,-86.06314000
32.59181976,-84.67701000
32.60374069,-91.32717000
32.61566162,-87.14091000
32.62758255,-83.62337000
32.63950348,-82.27784000
32.65142441,-84.58585000
32.66334534,-94.87614000
32.67526627,-98.27594000
32.68718719,-87.57796000
32.69910812,-85.39238000
32.71102905,-84.85541000
32.72294998,-82.78325000
32.73487091,-83.94270000
32.74679184,-86.15443000
32.75871277,-90.70976000
32.77063370,-88.20026000
32.78255463,-90.73892000
32.79447556,-94.15752000
32.80639648,-86.68144000
32.81831741,-84.77768000
32.83023834,-87.65644000
32.84215927,-94.85050000
32.85408020,-109.30700000
32.86600113,-91.33318000
32.87792206,-100.61890000
32.88984299,-90.25565000
32.90176392,-88.99739000
32.91368484,-98.14009000
32.92560577,-86.15849000
32.93752670,-84.27589000
32.94944763,-83.66162000
32.96136856,-84.69967000
32.97328949,-84.15134000
32.98521042,-82.78632000
32.99713135,-84.37526000
33.00905228,-85.63104000
33.02097321,-87.03728000
33.03289413,-91.46847000
33.04481506,-92.08607000
33.05673599,-92.08665000
33.06865692,-103.08180000
33.08057785,-87.20811000
33.09249878,-82.06832000
33.10441971,-81.21983000
33.11634064,-86.67678000
33.12826157,-93.47340000
33.14018250,-99.10646000
33.15210342,-90.82554000
33.16402435,-83.67046000
33.17594528,-82.56604000
33.18786621,-83.16986000
33.19978714,-87.21007000
33.21170807,-102.28390000
33.22362900,-83.44578000
33.23554993,-78.62708000
33.24747086,-79.46756000
33.25939178,-81.40357000
33.27131271,-86.13644000
33.28323364,-90.98480000
33.29515457,-88.71681000
33.30707550,-89.78927000
33.31899643,-98.27875000
33.33091736,-96.54774000
33.34283829,-95.57613000
33.35475922,-103.44670000
33.36668015,-88.15510000
33.37860107,-83.50943000
33.39052200,-85.02043000
33.40244293,-91.12881000
33.41436386,-97.47990000
33.42628479,-94.72744000
33.43820572,-92.99902000
33.45012665,-100.13130000
33.46204758,-86.04662000
33.47396851,-86.86692000
33.48588943,-92.03919000
33.49781036,-91.15402000
33.50973129,-90.68132000
33.52165222,-88.59710000
33.53357315,-93.72397000
33.54549408,-93.92123000
33.55741501,-86.63454000
33.56933594,-89.65691000
33.58125687,-95.84918000
33.59317780,-93.02132000
33.60509872,-91.00731000
33.61701965,-86.87779000
33.62894058,-87.65364000
33.64086151,-79.79118000
33.65278244,-80.86281000
33.66470337,-88.38067000
33.67662430,-97.70792000
33.68854523,-95.46159000
33.70046616,-106.64780000
33.71238708,-97.70191000
33.72430801,-107.22420000
33.73622894,-93.59500000
33.74814987,-90.17651000
33.76007080,-91.59888000
33.77199173,-88.19374000
33.78391266,-87.74130000
33.79583359,-89.80076000
33.80775452,-86.97285000
33.81967545,-91.23337000
33.83159637,-91.37727000
33.84351730,-82.30904000
33.85543823,-81.85867000
33.86735916,-92.36324000
33.87928009,-88.50440000
33.89120102,-83.75285000
33.90312195,-84.60804000
33.91504288,-85.50345000
33.92696381,-83.98842000
33.93888474,-91.05547000
33.95080566,-98.79295000
33.96272659,-89.89326000
33.97464752,-86.56400000
33.98656845,-89.05727000
33.99848938,-85.80032000
34.01041031,-84.05806000
34.02233124,-87.61532000
34.03425217,-86.26129000
34.04617310,-85.79323000
34.05809402,-91.72063000
34.07001495,-92.79678000
34.08193588,-96.39372000
34.09385681,-97.33324000
34.10577774,-94.75894000
34.11769867,-97.03751000
34.12961960,-119.31240000
34.14154053,-90.27257000
34.15346146,-85.30070000
34.16538239,-82.90119000
34.17730331,-79.96615000
34.18922424,-80.64856000
34.20114517,-86.67889000
34.21306610,-95.66058000
34.22498703,-84.90039000
34.23690796,-86.11141000
34.24882889,-87.69131000
34.26074982,-89.75402000
34.27267075,-87.14903000
34.28459167,-85.35613000
34.29651260,-85.73869000
34.30843353,-84.82578000
34.32035446,-84.74842000
34.33227539,-89.38574000
34.34419632,-90.69476000
34.35611725,-87.63671000
34.36803818,-88.05818000
34.37995911,-87.98769000
34.39188004,-85.46207000
34.40380096,-84.73115000
34.41572189,-85.48584000
34.42764282,-85.74596000
34.43956375,-85.35702000
34.45148468,-88.75014000
34.46340561,-101.36720000
34.47532654,-91.70100000
34.48724747,-87.71284000
34.49916840,-89.50723000
34.51108932,-93.10777000
34.52301025,-94.92198000
34.53493118,-101.13130000
34.54685211,-88.53427000
34.55877304,-85.65002000
34.57069397,-91.43726000
34.58261490,-88.63664000
34.59453583,-87.99709000
34.60645676,-88.67099000
34.61837769,-88.64709000
34.63029861,-94.67361000
34.64221954,-93.11079000
34.65414047,-87.09875000
34.66606140,-89.29801000
34.67798233,-95.62251000
34.68990326,-99.85997000
34.70182419,-89.42490000
34.71374512,-84.30919000
34.72566605,-82.27146000
34.73758698,-84.49500000
34.74950790,-90.55338000
34.76142883,-88.54373000
34.77334976,-87.20825000
34.78527069,-89.24903000
34.79719162,-102.03380000
34.80911255,-97.91924000
34.82103348,-93.45187000
34.83295441,-93.46933000
34.84487534,-100.80170000
34.85679626,-108.00780000
34.86871719,-95.36752000
34.88063812,-91.41880000
34.89255905,-91.00724000
34.90447998,-85.27699000
34.91640091,-84.60504000
34.92832184,-85.93944000
34.94024277,-87.68108000
34.95216370,-95.70537000
34.96408463,-90.84195000
34.97600555,-89.81256000
34.98792648,-88.43217000
34.99984741,-92.93596000
35.01176834,-90.24865000
35.02368927,-83.49110000
35.03561020,-82.51559000
35.04753113,-86.48586000
35.05945206,-92.18647000
35.07137299,-90.49091000
35.08329391,-94.95293000
35.09521484,-90.95376000
35.10713577,-90.65607000
35.11905670,-92.25890000
35.13097763,-88.35521000
35.14289856,-84.07482000
35.15481949,-88.21669000
35.16674042,-95.11418000
35.17866135,-93.22276000
35.19058228,-99.16568000
35.20250320,-94.42921000
35.21442413,-87.34015000
35.22634506,-85.90120000
35.23826599,-85.85244000
35.25018692,-89.99510000
35.26210785,-88.25072000
35.27402878,-88.35883000
35.28594971,-92.69899000
35.29787064,-113.43540000
35.30979156,-91.96466000
35.32171249,-91.04888000
35.33363342,-91.75569000
35.34555435,-82.11324000
35.35747528,-82.14575000
35.36939621,-85.04208000
35.38131714,-85.48100000
35.39323807,-85.45760000
35.40515900,-92.23830000
35.41707993,-87.04884000
35.42900085,-85.68425000
35.44092178,-95.25598000
35.45284271,-92.34091000
35.46476364,-88.70383000
35.47668457,-96.36863000
35.48860550,-94.32362000
35.50052643,-90.30211000
35.51244736,-85.89842000
35.52436829,-85.12558000
35.53628922,-91.50125000
35.54821014,-93.85567000
35.56013107,-86.94208000
35.57205200,-87.83559000
35.58397293,-98.03336000
35.59589386,-96.00882000
35.60781479,-90.59850000
35.61973572,-89.19348000
35.63165665,-89.39494000
35.64357758,-97.83034000
35.65549850,-91.35825000
35.66741943,-86.41133000
35.67934036,-84.75773000
35.69126129,-84.28948000
35.70318222,-85.26878000
35.71510315,-92.83344000
35.72702408,-85.91209000
35.73894501,-83.09906000
35.75086594,-84.56219000
35.76278687,-87.11506000
35.77470779,-89.81620000
35.78662872,-93.22566000
35.79854965,-90.03590000
35.81047058,-87.80646000
35.82239151,-101.92370000
35.83431244,-88.21965000
35.84623337,-83.90173000
35.85815430,-83.13734000
35.87007523,-87.39844000
35.88199615,-108.77860000
35.89391708,-91.83006000
35.90583801,-90.23801000
35.91775894,-100.46670000
35.92967987,-91.01470000
35.94160080,-85.01580000
35.95352173,-83.17085000
35.96544266,-81.66870000
35.97736359,-84.79118000
35.98928452,-96.10836000
36.00120544,-94.27547000
36.01312637,-94.50642000
36.02504730,-97.47557000
36.03696823,-88.08967000
36.04888916,-84.90601000
36.06081009,-86.68578000
36.07273102,-89.13345000
36.08465195,-97.65497000
36.09657288,-87.35152000
36.10849380,-88.42223000
36.12041473,-87.19839000
36.13233566,-100.21860000
36.14425659,-94.26482000
36.15617752,-97.42166000
36.16809845,-93.00267000
36.18001938,-92.85173000
36.19194031,-97.16017000
36.20386124,-83.99527000
36.21578217,-83.60713000
36.22770309,-89.83382000
36.23962402,-94.87000000
36.25154495,-95.74653000
36.26346588,-91.97910000
36.27538681,-89.18145000
36.28730774,-90.10098000
36.29922867,-89.02365000
36.31114960,-86.91776000
36.32307053,-86.61212000
36.33499146,-86.07735000
36.34691238,-89.47982000
36.35883331,-101.54400000
36.37075424,-98.06221000
36.38267517,-102.08150000
36.39459610,-101.55670000
36.40651703,-94.23514000
36.41843796,-84.39262000
36.43035889,-80.96201000
36.44227982,-81.23296000
36.45420074,-85.91891000
36.46612167,-91.29718000
36.47804260,-88.84673000
36.48996353,-89.65683000
36.50188446,-91.10652000
36.51380539,-95.88454000
36.52572632,-94.61166000
36.53764725,-88.31974000
36.54956818,-85.85224000
36.56148911,-85.67745000
36.57341003,-91.44222000
36.58533096,-88.60294000
36.59725189,-97.27742000
36.60917282,-88.57257000
36.62109375,-85.26259000
36.63301468,-84.70747000
36.64493561,-87.77582000
36.65685654,-94.96191000
36.66877747,-87.18250000
36.68069839,-87.46896000
36.69261932,-95.40727000
36.70454025,-101.45250000
36.71646118,-88.06598000
36.72838211,-86.84776000
36.74030304,-88.30727000
36.75222397,-88.71794000
36.76414490,-95.24089000
36.77606583,-91.13724000
36.78798676,-90.90263000
36.79990768,-87.49358000
36.81182861,-87.88750000
36.82374954,-82.44450000
36.83567047,-82.95424000
36.84759140,-94.88319000
36.85951233,-89.82169000
36.87143326,-87.65312000
36.88335419,-92.08633000
36.89527512,-100.37930000
36.90719604,-92.37265000
36.91911697,-85.97640000
36.93103790,-86.38756000
36.94295883,-108.51230000
36.95487976,-90.11653000
36.96680069,-92.94513000
36.97872162,-89.13020000
36.99064255,-89.12654000
37.00256348,-87.20782000
37.01448441,-83.56841000
37.02640533,-85.16550000
37.03832626,-97.14339000
37.05024719,-90.79993000
37.06216812,-90.00424000
37.07408905,-89.40178000
37.08600998,-85.67250000
37.09793091,-90.33677000
37.10985184,-97.41805000
37.12177277,-97.53915000
37.13369370,-100.55450000
37.14561462,-96.82631000
37.15753555,-93.45161000
37.16945648,-93.97144000
37.18137741,-93.54877000
37.19329834,-98.28024000
37.20521927,-91.27015000
37.21714020,-85.64307000
37.22906113,-84.38592000
37.24098206,-92.29030000
37.25290298,-103.15170000
37.26482391,-96.58066000
37.27674484,-84.37599000
37.28866577,-81.97255000
37.30058670,-86.42468000
37.31250763,-99.86263000
37.32442856,-87.63508000
37.33634949,-89.12634000
37.34827042,-97.04850000
37.36019135,-90.78472000
37.37211227,-82.47601000
37.38403320,-81.86674000
37.39595413,-89.80236000
37.40787506,-92.33905000
37.41979599,-97.48849000
37.43171692,-90.48855000
37.44363785,-89.75631000
37.45555878,-96.12433000
37.46747971,-90.97565000
37.47940063,-84.43603000
37.49132156,-84.39435000
37.50324249,-87.45200000
37.51516342,-86.67380000
37.52708435,-87.90187000
37.53900528,-90.11308000
37.55092621,-84.68604000
37.56284714,-80.60891000
37.57476807,-80.94079000
37.58668900,-86.66785000
37.59860992,-93.56612000
37.61053085,-85.15686000
37.62245178,-82.12672000
37.63437271,-82.75963000
37.64629364,-86.18039000
37.65821457,-88.03596000
37.67013550,-85.78445000
37.68205643,-89.20328000
37.69397736,-96.22295000
37.70589828,-85.30119000
37.71781921,-82.05754000
37.72974014,-84.72619000
37.74166107,-84.78717000
37.75358200,-83.83332000
37.76550293,-89.79918000
37.77742386,-93.22754000
37.78934479,-87.05446000
37.80126572,-85.65575000
37.81318665,-87.05085000
37.82510757,-93.38005000
37.83702850,-102.89670000
37.84894943,-93.49517000
37.86087036,-111.78900000
37.87279129,-85.92621000
37.88471222,-83.87811000
37.89663315,-88.93859000
37.90855408,-94.81071000
37.92047501,-100.20500000
37.93239594,-93.11388000
37.94431686,-88.93082000
37.95623779,-92.53568000
37.96815872,-87.19176000
37.98007965,-86.52759000
37.99200058,-85.87119000
38.00392151,-86.53711000
38.01584244,-88.07507000
38.02776337,-90.98716000
38.03968430,-94.79478000
38.05160522,-89.59606000
38.06352615,-84.18580000
38.07544708,-86.34761000
38.08736801,-98.39163000
38.09928894,-87.12570000
38.11120987,-90.77386000
38.12313080,-97.29305000
38.13505173,-90.26308000
38.14697266,-91.52481000
38.15889359,-95.29390000
38.17081451,-98.63395000
38.18273544,-88.34115000
38.19465637,-88.02933000
38.20657730,-85.71923000
38.21849823,-90.47440000
38.23041916,-88.70347000
38.24234009,-86.10465000
38.25426102,-88.02687000
38.26618195,-96.28152000
38.27810287,-93.43678000
38.29002380,-98.50124000
38.30194473,-100.88260000
38.31386566,-89.65718000
38.32578659,-91.47238000
38.33770752,-104.18790000
38.34962845,-96.89590000
38.36154938,-94.43297000
38.37347031,-90.15118000
38.38539124,-90.64515000
38.39731216,-88.20670000
38.40923309,-85.07972000
38.42115402,-85.63125000
38.43307495,-89.44588000
38.44499588,-93.88286000
38.45691681,-96.95083000
38.46883774,-92.20697000
38.48075867,-93.00065000
38.49267960,-93.95583000
38.50460052,-103.47540000
38.51652145,-91.77779000
38.52844238,-90.06094000
38.54036331,-86.94972000
38.55228424,-82.84039000
38.56420517,-84.57393000
38.57612610,-99.25595000
38.58804703,-93.65528000
38.59996796,-94.63516000
38.61188889,-88.45435000
38.62380981,-84.59338000
38.63573074,-85.34927000
38.64765167,-88.49023000
38.65957260,-89.93340000
38.67149353,-89.13675000
38.68341446,-86.42751000
38.69533539,-85.93764000
38.70725632,-86.46837000
38.71917725,-84.89372000
38.73109818,-83.26973000
38.74301910,-86.34281000
38.75494003,-95.57552000
38.76686096,-88.76984000
38.77878189,-89.48276000
38.79070282,-89.83962000
38.80262375,-85.96202000
38.81454468,-86.27122000
38.82646561,-83.00470000
38.83838654,-88.02268000
38.85030746,-97.84175000
38.86222839,-88.67239000
38.87414932,-87.37703000
38.88607025,-85.76897000
38.89799118,-84.19798000
38.90991211,-83.72002000
38.92183304,-82.46047000
38.93375397,-79.46458000
38.94567490,-79.13104000
38.95759583,-83.93154000
38.96951675,-91.53546000
38.98143768,-90.97889000
38.99335861,-85.36067000
39.00527954,-85.45165000
39.01720047,-95.18978000
39.02912140,-88.11150000
39.04104233,-91.49827000
39.05296326,-96.17046000
39.06488419,-96.65186000
39.07680511,-95.17288000
39.08872604,-86.09195000
39.10064697,-92.23434000
39.11256790,-84.86701000
39.12448883,-81.98766000
39.13640976,-84.09990000
39.14833069,-88.96039000
39.16025162,-92.56821000
39.17217255,-100.50080000
39.18409348,-120.33940000
39.19601440,-90.96432000
39.20793533,-86.82487000
39.21985626,-91.42089000
39.23177719,-91.64463000
39.24369812,-90.11929000
39.25561905,-94.57458000
39.26753998,-89.46320000
39.27946091,-88.14858000
39.29138184,-88.17020000
39.30330276,-84.26162000
39.31522369,-83.01499000
39.32714462,-89.75699000
39.33906555,-107.41880000
39.35098648,-87.79877000
39.36290741,-83.25561000
39.37482834,-86.27785000
39.38674927,-89.50354000
39.39867020,-99.64499000
39.41059113,-96.00166000
39.42251205,-89.10999000
39.43443298,-85.29584000
39.44635391,-84.23217000
39.45827484,-85.38388000
39.47019577,-92.50667000
39.48211670,-87.60712000
39.49403763,-88.56823000
39.50595856,-84.48247000
39.51787949,-89.19009000
39.52980042,-103.42220000
39.54172134,-98.52382000
39.55364227,-88.86308000
39.56556320,-87.61322000
39.57748413,-84.84425000
39.58940506,-87.27592000
39.60132599,-87.22679000
39.61324692,-85.70489000
39.62516785,-86.91476000
39.63708878,-90.28556000
39.64900970,-98.74239000
39.66093063,-96.73936000
39.67285156,-91.24928000
39.68477249,-95.55183000
39.69669342,-83.48930000
39.70861435,-82.35880000
39.72053528,-85.32500000
39.73245621,-88.03210000
39.74437714,-89.07596000
39.75629807,-95.90118000
39.76821899,-94.92506000
39.78013992,-97.15672000
39.79206085,-97.01305000
39.80398178,-98.23708000
39.81590271,-93.66878000
39.82782364,-94.95746000
39.83974457,-82.88535000
39.85166550,-82.37221000
39.86358643,-84.45093000
39.87550735,-84.20918000
39.88742828,-85.61466000
39.89934921,-91.08384000
39.91127014,-93.31226000
39.92319107,-100.08510000
39.93511200,-91.47843000
39.94703293,-86.29963000
39.95895386,-88.03531000
39.97087479,-96.34599000
39.98279572,-89.80521000
39.99471664,-91.92197000
40.00663757,-89.69576000
40.01855850,-87.65065000
40.03047943,-95.10087000
40.04240036,-88.75471000
40.05432129,-83.40561000
40.06624222,-83.75697000
40.07816315,-87.87183000
40.09008408,-90.65983000
40.10200500,-89.08795000
40.11392593,-85.80581000
40.12584686,-91.70930000
40.13776779,-95.08603000
40.14968872,-97.66153000
40.16160965,-91.03462000
40.17353058,-96.58467000
40.18545151,-92.69627000
40.19737244,-88.95146000
40.20929337,-89.80966000
40.22121429,-93.25308000
40.23313522,-85.01852000
40.24505615,-88.70430000
40.25697708,-95.81941000
40.26889801,-90.08595000
40.28081894,-84.98544000
40.29273987,-87.81128000
40.30466080,-87.43977000
40.31658173,-82.70198000
40.32850266,-92.72861000
40.34042358,-92.65715000
40.35234451,-89.33995000
40.36426544,-84.97066000
40.37618637,-87.37160000
40.38810730,-92.19124000
40.40002823,-95.46063000
40.41194916,-91.31973000
40.42387009,-87.61543000
40.43579102,-85.03169000
40.44771194,-84.14738000
40.45963287,-83.18878000
40.47155380,-81.54446000
40.48347473,-83.16391000
40.49539566,-95.17593000
40.50731659,-90.70013000
40.51923752,-90.19972000
40.53115845,-87.27808000
40.54307938,-84.72137000
40.55500031,-85.52017000
40.56692123,-86.42834000
40.57884216,-82.42039000
40.59076309,-83.99680000
40.60268402,-94.61079000
40.61460495,-96.71014000
40.62652588,-97.01898000
40.63844681,-93.97775000
40.65036774,-88.23826000
40.66228867,-89.05125000
40.67420959,-86.45712000
40.68613052,-85.62203000
40.69805145,-84.36418000
40.70997238,-82.73071000
40.72189331,-86.25141000
40.73381424,-94.43568000
40.74573517,-96.49322000
40.75765610,-89.43925000
40.76957703,-92.95581000
40.78149796,-92.59668000
40.79341888,-84.91525000
40.80533981,-83.70689000
40.81726074,-88.06937000
40.82918167,-94.07419000
40.84110260,-89.02076000
40.85302353,-85.95140000
40.86494446,-86.66932000
40.87686539,-90.00779000
40.88878632,-90.01320000
40.90070724,-88.47948000
40.91262817,-89.55169000
40.92454910,-93.14233000
40.93647003,-87.06607000
40.94839096,-84.56367000
40.96031189,-85.57764000
40.97223282,-84.94611000
40.98415375,-83.69713000
40.99607468,-84.52225000
41.00799561,-90.74303000
41.01991653,-83.97887000
41.03183746,-81.90571000
41.04375839,-88.07410000
41.05567932,-93.44673000
41.06760025,-100.08510000
41.07952118,-91.44634000
41.09144211,-89.15083000
41.10336304,-86.52998000
41.11528397,-87.58069000
41.12720490,-100.71330000
41.13912582,-89.06951000
41.15104675,-93.70773000
41.16296768,-95.18332000
41.17488861,-88.68667000
41.18680954,-88.24159000
41.19873047,-95.37213000
41.21065140,-103.28610000
41.22257233,-94.75483000
41.23449326,-97.31335000
41.24641418,-92.78233000
41.25833511,-85.79442000
41.27025604,-86.06841000
41.28217697,-86.96728000
41.29409790,-83.61217000
41.30601883,-84.50647000
41.31793976,-90.58888000
41.32986069,-96.07552000
41.34178162,-99.29330000
41.35370255,-98.34183000
41.36562347,-96.06554000
41.37754440,-88.07158000
41.38946533,-86.12457000
41.40138626,-85.92497000
41.41330719,-84.82973000
41.42522812,-85.55612000
41.43714905,-85.03974000
41.44906998,-92.48859000
41.46099091,-93.54034000
41.47291183,-94.58943000
41.48483276,-85.81558000
41.49675369,-85.07777000
41.50867462,-87.98736000
41.52059555,-90.51235000
41.53251648,-91.30913000
41.54443741,-86.91727000
41.55635834,-83.12966000
41.56827927,-84.95693000
41.58020020,-94.43747000
41.59212112,-98.84160000
41.60404205,-97.72569000
41.61596298,-91.52683000
41.62788391,-85.28588000
41.63980484,-86.42480000
41.65172577,-98.15239000
41.66364670,-88.99973000
41.67556763,-89.98097000
41.68748856,-89.53264000
41.69940948,-95.56429000
41.71133041,-97.69537000
41.72325134,-95.08561000
41.73517227,-90.64882000
41.74709320,-92.25079000
41.75901413,-85.26630000
41.77093506,-81.85886000
41.78285599,-82.79583000
41.79477692,-84.12312000
41.80669785,-90.25132000
41.81861877,-86.36073000
41.83053970,-84.51541000
41.84246063,-83.16528000
41.85438156,-84.32618000
41.86630249,-94.69105000
41.87822342,-90.67712000
41.89014435,-85.96400000
41.90206528,-92.45663000
41.91398621,-89.53717000
41.92590714,-92.53168000
41.93782806,-98.94786000
41.94974899,-88.65845000
41.96166992,-86.03522000
41.97359085,-85.58784000
41.98551178,-83.18860000
41.99743271,-87.31055000
42.00935364,-91.39835000
42.02127457,-87.46090000
42.03319550,-88.61421000
42.04511642,-90.00877000
42.05703735,-83.87146000
42.06895828,-87.44797000
42.08087921,-95.21614000
42.09280014,-89.60506000
42.10472107,-86.16797000
42.11664200,-96.10037000
42.12856293,-88.21613000
42.14048386,-90.63125000
42.15240479,-88.20916000
42.16432571,-91.85088000
42.17624664,-90.18669000
42.18816757,-100.77550000
42.20008850,-92.41580000
42.21200943,-88.60851000
42.22393036,-105.51600000
42.23585129,-86.48296000
42.24777222,-85.82777000
42.25969315,-84.84969000
42.27161407,-82.99996000
42.28353500,-87.04893000
42.29545593,-89.41428000
42.30737686,-82.42718000
42.31929779,-84.97308000
42.33121872,-87.28252000
42.34313965,-91.22443000
42.35506058,-100.60250000
42.36698151,-102.51860000
42.37890244,-88.99276000
42.39082336,-86.36813000
42.40274429,-93.22438000
42.41466522,-97.15260000
42.42658615,-88.48534000
42.43850708,-83.74345000
42.45042801,-85.58121000
42.46234894,-94.94595000
42.47426987,-97.84512000
42.48619080,-93.45518000
42.49811172,-95.58392000
42.51003265,-96.93421000
42.52195358,-86.87423000
42.53387451,-87.15336000
42.54579544,-106.19910000
42.55771637,-87.63997000
42.56963730,-87.49178000
42.58155823,-92.52880000
42.59347916,-97.96764000
42.60540009,-89.74575000
42.61732101,-86.85386000
42.62924194,-85.68411000
42.64116287,-95.47111000
42.65308380,-92.19827000
42.66500473,-86.82290000
42.67692566,-87.24158000
42.68884659,-92.43311000
42.70076752,-85.80832000
42.71268845,-82.08175000
42.72460938,-81.75006000
42.73653030,-84.08073000
42.74845123,-89.00234000
42.76037216,-85.95834000
42.77229309,-83.30430000
42.78421402,-84.74067000
42.79613495,-96.97768000
42.80805588,-87.61929000
42.81997681,-84.68045000
42.83189774,-94.18054000
42.84381866,-88.59066000
42.85573959,-109.57960000
42.86766052,-84.92786000
42.87958145,-83.39188000
42.89150238,-83.43779000
42.90342331,-84.67079000
42.91534424,-85.11847000
42.92726517,-86.08535000
42.93918610,-89.84573000
42.95110703,-88.15564000
42.96302795,-87.57915000
42.97494888,-87.15781000
42.98686981,-86.83190000
42.99879074,-86.94915000
43.01071167,-80.56975000
43.02263260,-82.02989000
43.03455353,-93.30518000
43.04647446,-88.55511000
43.05839539,-87.17439000
43.07031631,-106.03930000
43.08223724,-94.30280000
43.09415817,-90.90855000
43.10607910,-87.53918000
43.11800003,-91.14822000
43.12992096,-89.19582000
43.14184189,-83.78188000
43.15376282,-83.03191000
43.16568375,-89.14140000
43.17760468,-95.62016000
43.18952560,-91.24505000
43.20144653,-90.83643000
43.21336746,-97.22392000
43.22528839,-90.13630000
43.23720932,-85.61764000
43.24913025,-87.45666000
43.26105118,-85.31184000
43.27297211,-84.60619000
43.28489304,-84.76943000
43.29681396,-87.70578000
43.30873489,-91.47910000
43.32065582,-95.85567000
43.33257675,-88.40260000
43.34449768,-83.89322000
43.35641861,-86.92455000
43.36833954,-94.96350000
43.38026047,-88.26977000
43.39218140,-83.44926000
43.40410233,-88.87366000
43.41602325,-91.67065000
43.42794418,-92.86548000
43.43986511,-87.78688000
43.45178604,-85.99480000
43.46370697,-89.29105000
43.47562790,-87.77519000
43.48754883,-86.21783000
43.49946976,-88.70540000
43.51139069,-88.54314000
43.52331161,-91.58290000
43.53523254,-86.64596000
43.54715347,-81.94266000
43.55907440,-83.93596000
43.57099533,-89.45786000
43.58291626,-94.26654000
43.59483719,-94.54652000
43.60675812,-86.83524000
43.61867905,-83.05617000
43.63059998,-85.75267000
43.64252090,-110.19230000
43.65444183,-85.97664000
43.66636276,-85.37575000
43.67828369,-84.60921000
43.69020462,-81.18290000
43.70212555,-80.87299000
43.71404648,-90.26875000
43.72596741,-90.97559000
43.73788834,-84.34099000
43.74980927,-84.63081000
43.76173019,-97.88560000
43.77365112,-90.85999000
43.78557205,-92.88847000
43.79749298,-103.25970000
43.80941391,-90.51761000
43.82133484,-86.22433000
43.83325577,-83.91902000
43.84517670,-82.43905000
43.85709763,-85.88776000
43.86901855,-93.90328000
43.88093948,-91.21288000
43.89286041,-92.12646000
43.90478134,-91.30230000
43.91670227,-90.60212000
43.92862320,-101.69870000
43.94054413,-86.33908000
43.95246506,-84.02956000
43.96438599,-84.78091000
43.97630692,-88.45398000
43.98822784,-102.67990000
44.00014877,-91.96349000
44.01206970,-94.38668000
44.02399063,-90.64479000
44.03591156,-91.44588000
44.04783249,-91.69003000
44.05975342,-89.63190000
44.07167435,-90.43206000
44.08359528,-93.29942000
44.09551620,-90.08757000
44.10743713,-91.72264000
44.11935806,-89.95803000
44.13127899,-86.12663000
44.14319992,-90.81104000
44.15512085,-92.75537000
44.16704178,-92.55713000
44.17896271,-91.09644000
44.19088364,-91.50616000
44.20280457,-89.75341000
44.21472549,-85.45448000
44.22664642,-88.71294000
44.23856735,-93.12151000
44.25048828,-100.37600000
44.26240921,-95.07623000
44.27433014,-101.91290000
44.28625107,-93.28724000
44.29817200,-90.19843000
44.31009293,-93.97630000
44.32201385,-97.00842000
44.33393478,-88.42833000
44.34585571,-82.77599000
44.35777664,-82.40231000
44.36969757,-84.11383000
44.38161850,-84.79817000
44.39353943,-88.52260000
44.40546036,-90.56164000
44.41738129,-91.05457000
44.42930222,-96.31905000
44.44122314,-97.29140000
44.45314407,-88.95351000
44.46506500,-92.18159000
44.47698593,-89.04202000
44.48890686,-90.32100000
44.50082779,-92.69706000
44.51274872,-83.97972000
44.52466965,-86.58212000
44.53659058,-89.62686000
44.54851151,-91.69834000
44.56043243,-99.76775000
44.57235336,-94.50065000
44.58427429,-86.46727000
44.59619522,-83.24234000
44.60811615,-83.66425000
44.62003708,-84.80004000
44.63195801,-88.81568000
44.64387894,-97.42535000
44.65579987,-87.46337000
44.66772079,-84.59554000
44.67964172,-83.86211000
44.69156265,-85.70441000
44.70348358,-93.54438000
44.71540451,-85.28278000
44.72732544,-89.19252000
44.73924637,-91.14714000
44.75116730,-90.29243000
44.76308823,-100.21380000
44.77500916,-98.56174000
44.78693008,-86.53522000
44.79885101,-81.36986000
44.81077194,-81.48820000
44.82269287,-86.25319000
44.83461380,-100.95640000
44.84653473,-88.32686000
44.85845566,-89.00896000
44.87037659,-100.28170000
44.88229752,-95.40762000
44.89421844,-93.42569000
44.90613937,-92.49882000
44.91806030,-106.05150000
44.92998123,-90.98798000
44.94190216,-90.68291000
44.95382309,-92.68711000
44.96574402,-92.86328000
44.97766495,-87.79763000
44.98958588,-89.82881000
45.00150681,-93.15047000
45.01342773,-88.49148000
45.02534866,-83.25821000
45.03726959,-86.71386000
45.04919052,-91.95026000
45.06111145,-84.83568000
45.07303238,-88.67851000
45.08495331,-94.44383000
45.09687424,-108.60840000
45.10879517,-88.94176000
45.12071609,-87.02923000
45.13263702,-88.01666000
45.14455795,-86.05215000
45.15647888,-92.58638000
45.16839981,-94.47598000
45.18032074,-90.39336000
45.19224167,-101.81610000
45.20416260,-100.22800000
45.21608353,-101.53220000
45.22800446,-91.31119000
45.23992538,-91.84380000
45.25184631,-94.49612000
45.26376724,-89.97052000
45.27568817,-89.12329000
45.28760910,-87.18854000
45.29953003,-84.78168000
45.31145096,-85.01402000
45.32337189,-85.05444000
45.33529282,-83.49828000
45.34721375,-83.74284000
45.35913467,-89.94675000
45.37105560,-105.22520000
45.38297653,-90.05067000
45.39489746,-87.20934000
45.40681839,-91.12558000
45.41873932,-98.24401000
45.43066025,-97.06184000
45.44258118,-95.76334000
45.45450211,-101.50390000
45.46642303,-92.47012000
45.47834396,-90.59544000
45.49026489,-91.15363000
45.50218582,-96.34767000
45.51410675,-94.23120000
45.52602768,-91.35266000
45.53794861,-103.78300000
45.54986954,-86.96318000
45.56179047,-85.24262000
45.57371140,-83.83190000
45.58563232,-87.13210000
45.59755325,-94.55003000
45.60947418,-97.75571000
45.62139511,-92.82027000
45.63331604,-88.12233000
45.64523697,-85.74948000
45.65715790,-85.57847000
45.66907883,-83.76308000
45.68099976,-82.64932000
45.69292068,-83.39821000
45.70484161,-86.44313000
45.71676254,-92.54451000
45.72868347,-85.47059000
45.74060440,-82.98065000
45.75252533,-86.28542000
45.76444626,-96.92326000
45.77636719,-101.10740000
45.78828812,-90.35648000
45.80020905,-88.52983000
45.81212997,-99.47655000
45.82405090,-95.36044000
45.83597183,-96.78406000
45.84789276,-91.07513000
45.85981369,-88.36757000
45.87173462,-88.93280000
45.88365555,-96.23814000
45.89557648,-100.84430000
45.90749741,-94.91688000
45.91941833,-94.46557000
45.93133926,-90.78592000
45.94326019,-89.28402000
45.95518112,-89.82029000
45.96710205,-89.93000000
45.97902298,-89.43983000
45.99094391,-85.38365000
46.00286484,-86.42464000
46.01478577,-85.82352000
46.02670670,-87.74573000
46.03862762,-86.33383000
46.05054855,-88.15610000
46.06246948,-94.33377000
46.07439041,-98.38895000
46.08631134,-90.91801000
46.09823227,-86.44179000
46.11015320,-85.06321000
46.12207413,-84.97863000
46.13399506,-83.76473000
46.14591599,-84.86024000
46.15783691,-87.42735000
46.16975784,-87.41241000
46.18167877,-86.06914000
46.19359970,-84.06596000
46.20552063,-82.60952000
46.21744156,-83.50246000
46.22936249,-85.62196000
46.24128342,-85.99210000
46.25320435,-86.93071000
46.26512527,-86.97920000
46.27704620,-93.34294000
46.28896713,-92.02831000
46.30088806,-88.59720000
46.31280899,-86.99863000
46.32472992,-91.97482000
46.33665085,-94.97044000
46.34857178,-92.88924000
46.36049271,-87.37135000
46.37241364,-89.17212000
46.38433456,-87.84042000
46.39625549,-91.71719000
46.40817642,-99.11482000
46.42009735,-88.73412000
46.43201828,-84.60915000
46.44393921,-85.90156000
46.45586014,-91.18562000
46.46778107,-88.26126000
46.47970200,-92.58505000
46.49162292,-87.53010000
46.50354385,-84.26858000
46.51546478,-85.89639000
46.52738571,-88.06290000
46.53930664,-93.80571000
46.55122757,-97.37774000
46.56314850,-91.78214000
46.57506943,-87.43430000
46.58699036,-89.29788000
46.59891129,-97.88064000
46.61083221,-94.99350000
46.62275314,-95.62062000
46.63467407,-83.54850000
46.64659500,-80.35122000
46.65851593,-84.46655000
46.67043686,-89.26492000
46.68235779,-90.95119000
46.69427872,-98.62428000
46.70619965,-87.75062000
46.71812057,-87.64655000
46.73004150,-95.17546000
46.74196243,-99.27345000
46.75388336,-93.35918000
46.76580429,-91.17066000
46.77772522,-91.19826000
46.78964615,-88.37074000
46.80156708,-93.43869000
46.81348801,-92.97196000
46.82540894,-91.71302000
46.83732986,-89.64004000
46.84925079,-88.75932000
46.86117172,-91.19488000
46.87309265,-95.40416000
46.88501358,-104.76910000
46.89693451,-88.34740000
46.90885544,-85.52165000
46.92077637,-85.97153000
46.93269730,-94.22986000
46.94461823,-91.33882000
46.95653915,-88.19991000
46.96846008,-90.77034000
46.98038101,-96.61399000
46.99230194,-85.70508000
47.00422287,-88.16425000
47.01614380,-91.82934000
47.02806473,-90.44504000
47.03998566,-97.94478000
47.05190659,-92.20819000
47.06382751,-87.11511000
47.07574844,-88.26950000
47.08766937,-91.25064000
47.09959030,-87.23225000
47.11151123,-85.63943000
47.12343216,-88.24040000
47.13535309,-87.00692000
47.14727402,-88.00467000
47.15919495,-94.00273000
47.17111588,-93.09780000
47.18303680,-85.79967000
47.19495773,-82.42863000
47.20687866,-83.42062000
47.21879959,-86.79205000
47.23072052,-91.48576000
47.24264145,-93.78821000
47.25456238,-91.24221000
47.26648331,-90.98046000
47.27840424,-103.01530000
47.29032516,-93.44545000
47.30224609,-96.10666000
47.31416702,-86.43108000
47.32608795,-86.81667000
47.33800888,-92.44008000
47.34992981,-91.58126000
47.36185074,-88.93822000
47.37377167,-91.02271000
47.38569260,-92.23199000
47.39761353,-93.99969000
47.40953445,-100.32340000
47.42145538,-95.79218000
47.43337631,-86.53070000
47.44529724,-85.81303000
47.45721817,-88.18536000
47.46913910,-101.81660000
47.48106003,-84.25073000
47.49298096,-82.48765000
47.50490189,-85.46214000
47.51682281,-90.32536000
47.52874374,-89.41059000
47.54066467,-90.54546000
47.55258560,-91.57639000
47.56450653,-91.56472000
47.57642746,-102.99720000
47.58834839,-91.88380000
47.60026932,-91.47828000
47.61219025,-99.66480000
47.62411118,-96.28206000
47.63603210,-93.42399000
47.64795303,-87.87789000
47.65987396,-87.77829000
47.67179489,-94.70090000
47.68371582,-91.57542000
47.69563675,-90.12025000
47.70755768,-92.36290000
47.71947861,-93.80916000
47.73139954,-93.36536000
47.74332047,-95.33475000
47.75524139,-95.91073000
47.76716232,-90.85255000
47.77908325,-92.28560000
47.79100418,-106.92100000
47.80292511,-103.51680000
47.81484604,-94.77830000
47.82676697,-95.07790000
47.83868790,-91.15017000
47.85060883,-92.21983000
47.86252975,-97.88044000
47.87445068,-93.05830000
47.88637161,-93.37817000
47.89829254,-106.30270000
47.91021347,-86.60945000
47.92213440,-86.46774000
47.93405533,-91.53156000
47.94597626,-93.15271000
47.95789719,-91.39134000
47.96981812,-88.00990000
47.98173904,-87.13922000
47.99365997,-94.68306000
48.00558090,-91.07742000
48.01750183,-91.02795000
48.02942276,-100.48080000
48.04134369,-97.12559000
48.05326462,-89.28681000
48.06518555,-84.62502000
48.07710648,-83.02947000
48.08902740,-89.47185000
48.10094833,-89.42676000
48.11286926,-89.37530000
48.12479019,-86.93566000
48.13671112,-86.21133000
48.14863205,-92.25785000
48.16055298,-85.21613000
48.17247391,-90.65158000
48.18439484,-97.75801000
48.19631577,-92.91634000
48.20823669,-91.50862000
48.22015762,-91.15510000
48.23207855,-91.29674000
48.24399948,-87.12852000
48.25592041,-84.05280000
48.26784134,-87.74600000
48.27976227,-86.88300000
48.29168320,-85.37753000
48.30360413,-85.37241000
48.31552505,-86.12344000
48.32744598,-91.08140000
48.33936691,-92.90746000
48.35128784,-93.16579000
48.36320877,-88.39858000
48.37512970,-82.54922000
48.38705063,-82.68178000
48.39897156,-91.33515000
48.41089249,-89.18207000
48.42281342,-86.33823000
48.43473434,-89.46021000
48.44665527,-99.18598000
48.45857620,-97.58384000
48.47049713,-98.67914000
48.48241806,-87.17847000
48.49433899,-86.92077000
48.50625992,-99.59672000
48.51818085,-86.46233000
48.53010178,-84.35042000
48.54202271,-90.94627000
48.55394363,-86.06705000
48.56586456,-85.37304000
48.57778549,-96.58932000
48.58970642,-88.96789000
48.60162735,-85.53214000
48.61354828,-84.94949000
48.62546921,-87.90508000
48.63739014,-91.95035000
48.64931107,-85.94888000
48.66123199,-81.81496000
48.67315292,-85.10178000
48.68507385,-106.37480000
48.69699478,-97.84080000
48.70891571,-86.73425000
48.72083664,-86.80008000
48.73275757,-94.26910000
48.74467850,-86.02515000
48.75659943,-83.26765000
48.76852036,-83.12289000
48.78044128,-87.07038000
48.79236221,-108.54440000
48.80428314,-94.23447000
48.81620407,-89.22088000
