Frequency,Channel B
(kHz),(dBu)

0.00000000,-28.02234000
0.04768372,-36.23476000
0.09536743,-49.56593000
0.14305115,-43.26535000
0.19073486,-44.15287000
0.23841858,-49.40053000
0.28610229,-52.72219000
0.33378601,-52.47792000
0.38146973,-62.70332000
0.42915344,-51.33068000
0.47683716,-48.53034000
0.52452087,-49.98000000
0.57220459,-54.69459000
0.61988831,-57.94358000
0.66757202,-65.67651000
0.71525574,-63.40724000
0.76293945,-55.34298000
0.81062317,-58.26355000
0.85830688,-51.92797000
0.90599060,-50.65465000
0.95367432,-64.61314000
1.00135803,-67.64087000
1.04904175,-66.68060000
1.09672546,-54.55349000
1.14440918,-49.43127000
1.19209290,-53.35411000
1.23977661,-54.23012000
1.28746033,-54.64603000
1.33514404,-62.32845000
1.38282776,-51.30365000
1.43051147,-52.80707000
1.47819519,-66.03843000
1.52587891,-55.37831000
1.57356262,-54.96013000
1.62124634,-51.67318000
1.66893005,-48.86835000
1.71661377,-49.92859000
1.76429749,-53.31813000
1.81198120,-62.07520000
1.85966492,-62.15265000
1.90734863,-68.08801000
1.95503235,-63.52559000
2.00271606,-61.42676000
2.05039978,-57.41771000
2.09808350,-55.23954000
2.14576721,-54.63950000
2.19345093,-52.83941000
2.24113464,-50.23401000
2.28881836,-49.96610000
2.33650208,-47.82447000
2.38418579,-46.77341000
2.43186951,-51.11297000
2.47955322,-54.14252000
2.52723694,-48.89888000
2.57492065,-51.96250000
2.62260437,-52.13089000
2.67028809,-51.68991000
2.71797180,-52.83136000
2.76565552,-52.55699000
2.81333923,-58.68951000
2.86102295,-61.62886000
2.90870667,-57.97413000
2.95639038,-54.14412000
3.00407410,-50.41155000
3.05175781,-49.61994000
3.09944153,-49.13780000
3.14712524,-49.44641000
3.19480896,-50.40974000
3.24249268,-54.87471000
3.29017639,-62.38941000
3.33786011,-70.71435000
3.38554382,-57.45123000
3.43322754,-55.00360000
3.48091125,-57.76181000
3.52859497,-60.72673000
3.57627869,-68.03929000
3.62396240,-58.16117000
3.67164612,-54.32412000
3.71932983,-55.99411000
3.76701355,-58.74588000
3.81469727,-58.43551000
3.86238098,-57.62285000
3.91006470,-52.81975000
3.95774841,-54.84140000
4.00543213,-53.91349000
4.05311584,-57.14660000
4.10079956,-57.65542000
4.14848328,-51.32346000
4.19616699,-51.17124000
4.24385071,-50.42337000
4.29153442,-50.31751000
4.33921814,-50.83214000
4.38690186,-53.45461000
4.43458557,-55.14105000
4.48226929,-52.40535000
4.52995300,-53.43167000
4.57763672,-56.48433000
4.62532043,-53.06098000
4.67300415,-55.36242000
4.72068787,-61.56870000
4.76837158,-54.35588000
4.81605530,-58.43143000
4.86373901,-63.62860000
4.91142273,-60.06544000
4.95910645,-56.86095000
5.00679016,-54.35335000
5.05447388,-53.16758000
5.10215759,-54.74608000
5.14984131,-63.80157000
5.19752502,-54.76834000
5.24520874,-56.87926000
5.29289246,-58.07405000
5.34057617,-55.74268000
5.38825989,-59.38090000
5.43594360,-57.70248000
5.48362732,-59.95338000
5.53131104,-79.48576000
5.57899475,-58.25802000
5.62667847,-51.07902000
5.67436218,-63.30660000
5.72204590,-54.36343000
5.76972961,-69.35580000
5.81741333,-57.11864000
5.86509705,-54.42929000
5.91278076,-57.41276000
5.96046448,-63.82944000
6.00814819,-59.56187000
6.05583191,-52.44910000
6.10351563,-61.89308000
6.15119934,-52.91085000
6.19888306,-51.98960000
6.24656677,-67.34593000
6.29425049,-55.90894000
6.34193420,-49.20159000
6.38961792,-47.94913000
6.43730164,-48.01342000
6.48498535,-48.40022000
6.53266907,-42.35563000
6.58035278,-63.90564000
6.62803650,-43.89923000
6.67572021,-51.05740000
6.72340393,-41.22017000
6.77108765,-42.33884000
6.81877136,-40.48042000
6.86645508,-38.33447000
6.91413879,-38.11126000
6.96182251,-31.32713000
7.00950623,-29.99947000
7.05718994,-20.41765000
7.10487366,-13.55429000
7.15255737,-8.33190600
7.20024109,-7.93539500
7.24792480,-12.22973000
7.29560852,-18.33823000
7.34329224,-25.20510000
7.39097595,-23.91791000
7.43865967,-23.70169000
7.48634338,-17.74118000
7.53402710,-12.48390000
7.58171082,-9.95739400
7.62939453,-11.34262000
7.67707825,-16.37542000
7.72476196,-23.37033000
7.77244568,-30.59178000
7.82012939,-32.43436000
7.86781311,-37.88928000
7.91549683,-38.65258000
7.96318054,-42.66509000
8.01086426,-42.89387000
8.05854797,-44.32915000
8.10623169,-47.82254000
8.15391541,-44.82532000
8.20159912,-49.28665000
8.24928284,-45.78292000
8.29696655,-49.55995000
8.34465027,-53.07669000
8.39233398,-46.27145000
8.44001770,-55.77469000
8.48770142,-50.85595000
8.53538513,-64.63702000
8.58306885,-49.29940000
8.63075256,-68.75642000
8.67843628,-54.06609000
8.72612000,-52.18775000
8.77380371,-50.98528000
8.82148743,-59.21532000
8.86917114,-56.30322000
8.91685486,-54.79109000
8.96453857,-55.90171000
9.01222229,-56.99879000
9.05990601,-56.46674000
9.10758972,-56.83067000
9.15527344,-51.66048000
9.20295715,-50.39676000
9.25064087,-68.48013000
9.29832458,-57.49501000
9.34600830,-55.61512000
9.39369202,-56.10800000
9.44137573,-55.61408000
9.48905945,-53.67218000
9.53674316,-54.58343000
9.58442688,-53.00340000
9.63211060,-56.15651000
9.67979431,-58.27758000
9.72747803,-56.56503000
9.77516174,-50.25837000
9.82284546,-55.60693000
9.87052917,-63.36263000
9.91821289,-62.87785000
9.96589661,-58.65925000
10.01358032,-63.70035000
10.06126404,-60.01005000
10.10894775,-57.53189000
10.15663147,-54.52107000
10.20431519,-52.17186000
10.25199890,-54.65705000
10.29968262,-54.93017000
10.34736633,-50.97965000
10.39505005,-50.01019000
10.44273376,-55.06840000
10.49041748,-55.27001000
10.53810120,-56.10791000
10.58578491,-60.40444000
10.63346863,-60.17479000
10.68115234,-63.84510000
10.72883606,-63.14225000
10.77651978,-60.26521000
10.82420349,-61.10620000
10.87188721,-64.29587000
10.91957092,-60.24855000
10.96725464,-56.03307000
11.01493835,-51.05048000
11.06262207,-54.14738000
11.11030579,-52.68705000
11.15798950,-54.23293000
11.20567322,-59.67762000
11.25335693,-74.10543000
11.30104065,-60.54112000
11.34872437,-64.40719000
11.39640808,-70.73697000
11.44409180,-57.97362000
11.49177551,-57.35059000
11.53945923,-61.11842000
11.58714294,-65.76087000
11.63482666,-63.86534000
11.68251038,-67.18980000
11.73019409,-54.58579000
11.77787781,-55.14515000
11.82556152,-55.15927000
11.87324524,-59.42710000
11.92092896,-65.47240000
11.96861267,-54.60470000
12.01629639,-54.62038000
12.06398010,-55.49198000
12.11166382,-55.66072000
12.15934753,-56.28227000
12.20703125,-54.60667000
12.25471497,-63.82199000
12.30239868,-59.02973000
12.35008240,-56.22319000
12.39776611,-59.11003000
12.44544983,-59.83598000
12.49313354,-65.44750000
12.54081726,-63.07227000
12.58850098,-59.00686000
12.63618469,-61.75292000
12.68386841,-52.12231000
12.73155212,-51.16240000
12.77923584,-51.60559000
12.82691956,-53.62428000
12.87460327,-55.58648000
12.92228699,-65.59026000
12.96997070,-70.84486000
13.01765442,-56.14050000
13.06533813,-55.54601000
13.11302185,-59.65874000
13.16070557,-54.25491000
13.20838928,-54.18883000
13.25607300,-68.60008000
13.30375671,-55.54889000
13.35144043,-55.49775000
13.39912415,-57.81195000
13.44680786,-60.27703000
13.49449158,-66.99591000
13.54217529,-64.14706000
13.58985901,-56.30984000
13.63754272,-65.26002000
13.68522644,-55.36453000
13.73291016,-54.21135000
13.78059387,-54.43607000
13.82827759,-50.61553000
13.87596130,-51.09433000
13.92364502,-63.09062000
13.97132874,-53.59909000
14.01901245,-51.20938000
14.06669617,-55.73727000
14.11437988,-52.33468000
14.16206360,-52.94213000
14.20974731,-57.50980000
14.25743103,-51.25320000
14.30511475,-48.94836000
14.35279846,-48.67807000
14.40048218,-47.14809000
14.44816589,-46.26213000
14.49584961,-48.41778000
14.54353333,-52.11919000
14.59121704,-54.25844000
14.63890076,-47.99205000
14.68658447,-47.31133000
14.73426819,-51.31140000
14.78195190,-51.65467000
14.82963562,-49.78582000
14.87731934,-50.50707000
14.92500305,-49.16989000
14.97268677,-50.07301000
15.02037048,-52.82975000
15.06805420,-53.20414000
15.11573792,-52.69353000
15.16342163,-56.49534000
15.21110535,-62.25582000
15.25878906,-59.88537000
15.30647278,-64.22401000
15.35415649,-71.94862000
15.40184021,-66.76240000
15.44952393,-58.76293000
15.49720764,-57.05581000
15.54489136,-61.06553000
15.59257507,-61.32761000
15.64025879,-55.60702000
15.68794250,-60.96163000
15.73562622,-56.58729000
15.78330994,-49.58934000
15.83099365,-52.45434000
15.87867737,-55.17275000
15.92636108,-52.97334000
15.97404480,-52.95995000
16.02172852,-52.81727000
16.06941223,-54.44717000
16.11709595,-53.86726000
16.16477966,-54.94531000
16.21246338,-64.88212000
16.26014709,-61.19839000
16.30783081,-56.61437000
16.35551453,-53.33758000
16.40319824,-54.15449000
16.45088196,-55.35851000
16.49856567,-65.88908000
16.54624939,-62.21651000
16.59393311,-54.23998000
16.64161682,-52.09890000
16.68930054,-55.32436000
16.73698425,-57.15343000
16.78466797,-55.97828000
16.83235168,-57.94737000
16.88003540,-60.19710000
16.92771912,-64.47867000
16.97540283,-56.70922000
17.02308655,-59.04499000
17.07077026,-77.03688000
17.11845398,-55.26983000
17.16613770,-52.32080000
17.21382141,-53.70682000
17.26150513,-53.35667000
17.30918884,-59.51538000
17.35687256,-54.79717000
17.40455627,-53.01862000
17.45223999,-57.25630000
17.49992371,-76.93929000
17.54760742,-56.69086000
17.59529114,-54.50031000
17.64297485,-56.83014000
17.69065857,-53.39886000
17.73834229,-51.72303000
17.78602600,-52.24635000
17.83370972,-52.24364000
17.88139343,-58.20876000
17.92907715,-61.29662000
17.97676086,-58.67455000
18.02444458,-58.60736000
18.07212830,-54.41034000
18.11981201,-53.12153000
18.16749573,-61.82612000
18.21517944,-59.39376000
18.26286316,-58.77113000
18.31054688,-55.08446000
18.35823059,-50.57770000
18.40591431,-52.87463000
18.45359802,-64.92216000
18.50128174,-65.00611000
18.54896545,-64.07317000
18.59664917,-54.32601000
18.64433289,-57.43728000
18.69201660,-60.21880000
18.73970032,-58.47872000
18.78738403,-60.10038000
18.83506775,-61.17142000
18.88275146,-51.70610000
18.93043518,-52.05021000
18.97811890,-53.57834000
19.02580261,-61.75503000
19.07348633,-54.63474000
19.12117004,-57.75395000
19.16885376,-58.29677000
19.21653748,-54.38574000
19.26422119,-60.00519000
19.31190491,-58.98529000
19.35958862,-56.79525000
19.40727234,-53.19397000
19.45495605,-54.83698000
19.50263977,-58.77628000
19.55032349,-60.23671000
19.59800720,-62.92368000
19.64569092,-56.37767000
19.69337463,-55.49534000
19.74105835,-60.86951000
19.78874207,-49.67869000
19.83642578,-50.90062000
19.88410950,-59.35105000
19.93179321,-58.04916000
19.97947693,-52.10085000
20.02716064,-53.11123000
20.07484436,-54.73033000
20.12252808,-53.93362000
20.17021179,-57.52647000
20.21789551,-54.33765000
20.26557922,-52.73849000
20.31326294,-57.51174000
20.36094666,-53.83282000
20.40863037,-52.70277000
20.45631409,-52.17802000
20.50399780,-48.17810000
20.55168152,-49.59866000
20.59936523,-53.93666000
20.64704895,-55.08400000
20.69473267,-53.53463000
20.74241638,-54.51722000
20.79010010,-52.71331000
20.83778381,-52.68394000
20.88546753,-59.97295000
20.93315125,-58.04333000
20.98083496,-53.88624000
21.02851868,-54.53214000
21.07620239,-54.82754000
21.12388611,-64.45069000
21.17156982,-53.68200000
21.21925354,-49.40618000
21.26693726,-52.60227000
21.31462097,-52.12425000
21.36230469,-53.83498000
21.40998840,-53.25085000
21.45767212,-52.12177000
21.50535583,-53.27461000
21.55303955,-49.69596000
21.60072327,-47.84844000
21.64840698,-50.58258000
21.69609070,-56.87592000
21.74377441,-54.07885000
21.79145813,-54.14355000
21.83914185,-55.15098000
21.88682556,-53.29984000
21.93450928,-51.27008000
21.98219299,-50.68204000
22.02987671,-50.20424000
22.07756042,-49.08311000
22.12524414,-48.06614000
22.17292786,-46.16890000
22.22061157,-47.35263000
22.26829529,-54.92174000
22.31597900,-61.59519000
22.36366272,-58.13470000
22.41134644,-63.40763000
22.45903015,-52.38216000
22.50671387,-49.56924000
22.55439758,-49.85637000
22.60208130,-50.74141000
22.64976501,-51.11199000
22.69744873,-49.77489000
22.74513245,-51.28224000
22.79281616,-56.30924000
22.84049988,-54.88795000
22.88818359,-58.25719000
22.93586731,-57.58587000
22.98355103,-56.34645000
23.03123474,-56.51303000
23.07891846,-53.14119000
23.12660217,-54.41555000
23.17428589,-54.35593000
23.22196960,-54.21147000
23.26965332,-68.55745000
23.31733704,-59.71958000
23.36502075,-57.16098000
23.41270447,-52.00113000
23.46038818,-50.31707000
23.50807190,-49.48161000
23.55575562,-51.83781000
23.60343933,-61.47562000
23.65112305,-58.56836000
23.69880676,-65.25797000
23.74649048,-62.70572000
23.79417419,-67.17641000
23.84185791,-65.54688000
23.88954163,-56.54435000
23.93722534,-57.46805000
23.98490906,-62.84827000
24.03259277,-57.55643000
24.08027649,-58.87415000
24.12796021,-58.81755000
24.17564392,-50.18430000
24.22332764,-48.71709000
24.27101135,-53.22342000
24.31869507,-67.13356000
24.36637878,-54.33016000
24.41406250,-53.59745000
24.46174622,-53.00323000
24.50942993,-51.82612000
24.55711365,-56.22817000
24.60479736,-65.67865000
24.65248108,-57.89590000
24.70016479,-56.96175000
24.74784851,-53.77563000
24.79553223,-54.66581000
24.84321594,-64.18552000
24.89089966,-58.82500000
24.93858337,-50.68134000
24.98626709,-48.67582000
25.03395081,-54.14142000
25.08163452,-68.14772000
25.12931824,-70.33556000
25.17700195,-67.30567000
25.22468567,-60.81833000
25.27236938,-57.51192000
25.32005310,-54.67369000
25.36773682,-51.52292000
25.41542053,-50.55075000
25.46310425,-57.36094000
25.51078796,-55.26760000
25.55847168,-53.47684000
25.60615540,-53.79691000
25.65383911,-53.92318000
25.70152283,-58.87769000
25.74920654,-61.36921000
25.79689026,-55.93278000
25.84457397,-63.43639000
25.89225769,-65.73865000
25.93994141,-53.62467000
25.98762512,-53.75228000
26.03530884,-55.72853000
26.08299255,-54.10111000
26.13067627,-51.89657000
26.17835999,-53.49368000
26.22604370,-60.69254000
26.27372742,-54.94930000
26.32141113,-54.36879000
26.36909485,-56.91570000
26.41677856,-56.48807000
26.46446228,-56.18539000
26.51214600,-61.18376000
26.55982971,-52.91800000
26.60751343,-53.83465000
26.65519714,-58.60447000
26.70288086,-62.45893000
26.75056458,-64.11797000
26.79824829,-61.93831000
26.84593201,-57.35380000
26.89361572,-53.32428000
26.94129944,-51.44603000
26.98898315,-50.91177000
27.03666687,-55.08842000
27.08435059,-61.07788000
27.13203430,-56.24066000
27.17971802,-56.11895000
27.22740173,-61.37039000
27.27508545,-54.88456000
27.32276917,-55.28666000
27.37045288,-72.93187000
27.41813660,-54.87463000
27.46582031,-55.02155000
27.51350403,-57.35888000
27.56118774,-57.14172000
27.60887146,-59.40072000
27.65655518,-60.90051000
27.70423889,-58.03673000
27.75192261,-55.54163000
27.79960632,-54.60077000
27.84729004,-73.42519000
27.89497375,-53.08018000
27.94265747,-51.38230000
27.99034119,-71.92352000
28.03802490,-59.71624000
28.08570862,-58.41801000
28.13339233,-52.74605000
28.18107605,-50.78294000
28.22875977,-49.50718000
28.27644348,-54.83412000
28.32412720,-64.24091000
28.37181091,-63.55429000
28.41949463,-59.59613000
28.46717834,-57.18179000
28.51486206,-57.07380000
28.56254578,-55.34844000
28.61022949,-51.09406000
28.65791321,-50.97860000
28.70559692,-59.30715000
28.75328064,-72.87222000
28.80096436,-67.06279000
28.84864807,-58.87949000
28.89633179,-57.73436000
28.94401550,-53.07202000
28.99169922,-55.17948000
29.03938293,-55.02676000
29.08706665,-52.59995000
29.13475037,-57.53121000
29.18243408,-56.59605000
29.23011780,-59.87308000
29.27780151,-63.20429000
29.32548523,-61.68005000
29.37316895,-76.86723000
29.42085266,-64.40324000
29.46853638,-79.94678000
29.51622009,-57.90878000
29.56390381,-50.63500000
29.61158752,-49.44726000
29.65927124,-55.34372000
29.70695496,-56.16684000
29.75463867,-50.69933000
29.80232239,-53.18504000
29.85000610,-52.48132000
29.89768982,-50.97813000
29.94537354,-52.27430000
29.99305725,-53.02703000
30.04074097,-57.62644000
30.08842468,-68.72039000
30.13610840,-56.08364000
30.18379211,-55.40823000
30.23147583,-59.81437000
30.27915955,-53.90020000
30.32684326,-53.16721000
30.37452698,-54.23213000
30.42221069,-67.37634000
30.46989441,-54.00794000
30.51757813,-51.41655000
30.56526184,-58.61058000
30.61294556,-60.89582000
30.66062927,-55.81344000
30.70831299,-54.42178000
30.75599670,-49.12088000
30.80368042,-48.53738000
30.85136414,-49.04450000
30.89904785,-52.24120000
30.94673157,-62.40849000
30.99441528,-57.70263000
31.04209900,-52.26047000
31.08978271,-55.41969000
31.13746643,-56.34940000
31.18515015,-66.05334000
31.23283386,-58.52660000
31.28051758,-55.44741000
31.32820129,-55.12084000
31.37588501,-55.81630000
31.42356873,-56.56385000
31.47125244,-56.91637000
31.51893616,-59.73539000
31.56661987,-71.42097000
31.61430359,-69.26831000
31.66198730,-57.77680000
31.70967102,-63.20108000
31.75735474,-51.04137000
31.80503845,-47.60702000
31.85272217,-48.06843000
31.90040588,-51.04153000
31.94808960,-52.21778000
31.99577332,-52.33259000
32.04345703,-65.81421000
32.09114075,-65.02487000
32.13882446,-64.37295000
32.18650818,-58.11654000
32.23419189,-49.69788000
32.28187561,-50.64821000
32.32955933,-60.29716000
32.37724304,-53.52116000
32.42492676,-57.57198000
32.47261047,-73.32628000
32.52029419,-61.80094000
32.56797791,-71.41499000
32.61566162,-63.27720000
32.66334534,-55.94754000
32.71102905,-56.33884000
32.75871277,-62.24002000
32.80639648,-51.30288000
32.85408020,-51.14914000
32.90176392,-54.57095000
32.94944763,-56.72302000
32.99713135,-59.40056000
33.04481506,-57.58630000
33.09249878,-56.47806000
33.14018250,-57.17043000
33.18786621,-59.13634000
33.23554993,-69.48362000
33.28323364,-70.38174000
33.33091736,-57.07133000
33.37860107,-52.02360000
33.42628479,-50.72334000
33.47396851,-55.07449000
33.52165222,-61.62537000
33.56933594,-56.26962000
33.61701965,-57.71996000
33.66470337,-53.61650000
33.71238708,-55.23954000
33.76007080,-55.73893000
33.80775452,-51.42023000
33.85543823,-51.63163000
33.90312195,-50.35870000
33.95080566,-52.66905000
33.99848938,-66.11424000
34.04617310,-54.75138000
34.09385681,-51.77332000
34.14154053,-50.44874000
34.18922424,-57.31049000
34.23690796,-60.35677000
34.28459167,-58.80534000
34.33227539,-57.30633000
34.37995911,-52.54988000
34.42764282,-62.01538000
34.47532654,-76.44501000
34.52301025,-59.05104000
34.57069397,-57.80210000
34.61837769,-57.54337000
34.66606140,-54.27929000
34.71374512,-53.84910000
34.76142883,-55.50258000
34.80911255,-55.68859000
34.85679626,-56.73893000
34.90447998,-63.33509000
34.95216370,-71.75012000
34.99984741,-59.87729000
35.04753113,-52.45948000
35.09521484,-52.17108000
35.14289856,-52.40875000
35.19058228,-55.74712000
35.23826599,-56.80209000
35.28594971,-53.51292000
35.33363342,-49.23285000
35.38131714,-49.92822000
35.42900085,-63.03356000
35.47668457,-52.43697000
35.52436829,-51.88788000
35.57205200,-51.13428000
35.61973572,-52.80517000
35.66741943,-66.34106000
35.71510315,-52.32845000
35.76278687,-53.30952000
35.81047058,-58.55314000
35.85815430,-78.14505000
35.90583801,-56.87887000
35.95352173,-48.88261000
36.00120544,-48.55627000
36.04888916,-53.72910000
36.09657288,-48.63716000
36.14425659,-47.23708000
36.19194031,-49.14468000
36.23962402,-51.62779000
36.28730774,-50.29484000
36.33499146,-47.97913000
36.38267517,-48.16152000
36.43035889,-49.22189000
36.47804260,-51.13634000
36.52572632,-51.70752000
36.57341003,-51.65903000
36.62109375,-55.50560000
36.66877747,-60.30247000
36.71646118,-53.06218000
36.76414490,-48.46630000
36.81182861,-48.37113000
36.85951233,-50.10645000
36.90719604,-52.54991000
36.95487976,-55.59364000
37.00256348,-53.33328000
37.05024719,-57.02197000
37.09793091,-62.89638000
37.14561462,-56.96270000
37.19329834,-57.26966000
37.24098206,-56.10538000
37.28866577,-55.48454000
37.33634949,-63.14474000
37.38403320,-58.93237000
37.43171692,-55.54646000
37.47940063,-64.93900000
37.52708435,-58.24308000
37.57476807,-60.73410000
37.62245178,-69.03313000
37.67013550,-60.80931000
37.71781921,-58.01437000
37.76550293,-60.67326000
37.81318665,-56.94086000
37.86087036,-50.58758000
37.90855408,-52.64542000
37.95623779,-57.37736000
38.00392151,-53.58417000
38.05160522,-55.47131000
38.09928894,-62.03750000
38.14697266,-56.50634000
38.19465637,-55.90347000
38.24234009,-54.19192000
38.29002380,-52.89643000
38.33770752,-55.65596000
38.38539124,-54.91027000
38.43307495,-58.28884000
38.48075867,-60.19408000
38.52844238,-58.30056000
38.57612610,-62.47305000
38.62380981,-65.96523000
38.67149353,-58.91603000
38.71917725,-57.77774000
38.76686096,-59.06604000
38.81454468,-56.36592000
38.86222839,-53.00754000
38.90991211,-52.70605000
38.95759583,-57.40127000
39.00527954,-60.27739000
39.05296326,-52.52769000
39.10064697,-56.92840000
39.14833069,-62.86188000
39.19601440,-57.44219000
39.24369812,-56.01705000
39.29138184,-55.41231000
39.33906555,-61.30961000
39.38674927,-55.63222000
39.43443298,-56.48697000
39.48211670,-55.91813000
39.52980042,-52.01466000
39.57748413,-53.81749000
39.62516785,-58.91933000
39.67285156,-60.70879000
39.72053528,-58.73364000
39.76821899,-57.48652000
39.81590271,-56.12903000
39.86358643,-54.75402000
39.91127014,-52.44773000
39.95895386,-53.02587000
40.00663757,-59.75328000
40.05432129,-61.12985000
40.10200500,-61.77124000
40.14968872,-55.76133000
40.19737244,-53.43859000
40.24505615,-66.46040000
40.29273987,-60.28547000
40.34042358,-59.75587000
40.38810730,-54.29799000
40.43579102,-60.08907000
40.48347473,-66.54988000
40.53115845,-68.21346000
40.57884216,-77.17655000
40.62652588,-80.07487000
40.67420959,-66.58990000
40.72189331,-58.25218000
40.76957703,-55.10764000
40.81726074,-55.79436000
40.86494446,-55.26939000
40.91262817,-53.62102000
40.96031189,-53.86419000
41.00799561,-52.86655000
41.05567932,-50.08179000
41.10336304,-49.93553000
41.15104675,-49.55487000
41.19873047,-50.54090000
41.24641418,-54.85505000
41.29409790,-51.80782000
41.34178162,-53.15811000
41.38946533,-63.37594000
41.43714905,-51.99184000
41.48483276,-54.08529000
41.53251648,-58.25407000
41.58020020,-54.88866000
41.62788391,-53.32169000
41.67556763,-53.44098000
41.72325134,-67.86585000
41.77093506,-55.24997000
41.81861877,-55.90528000
41.86630249,-58.99271000
41.91398621,-64.12814000
41.96166992,-66.06086000
42.00935364,-62.91748000
42.05703735,-59.29073000
42.10472107,-64.17082000
42.15240479,-63.87134000
42.20008850,-62.26712000
42.24777222,-59.74476000
42.29545593,-57.21498000
42.34313965,-66.05563000
42.39082336,-60.22594000
42.43850708,-62.53912000
42.48619080,-60.49885000
42.53387451,-56.42574000
42.58155823,-64.25510000
42.62924194,-61.20216000
42.67692566,-55.15223000
42.72460938,-55.84711000
42.77229309,-49.38898000
42.81997681,-53.14611000
42.86766052,-59.78793000
42.91534424,-55.16506000
42.96302795,-52.93581000
43.01071167,-55.18633000
43.05839539,-63.27191000
43.10607910,-58.11257000
43.15376282,-66.71359000
43.20144653,-54.94721000
43.24913025,-53.75257000
43.29681396,-60.19257000
43.34449768,-53.35600000
43.39218140,-56.26200000
43.43986511,-60.67989000
43.48754883,-66.47018000
43.53523254,-51.82690000
43.58291626,-49.94772000
43.63059998,-52.75623000
43.67828369,-58.55034000
43.72596741,-59.53563000
43.77365112,-57.20322000
43.82133484,-67.08743000
43.86901855,-61.82333000
43.91670227,-56.22466000
43.96438599,-53.07965000
44.01206970,-59.97885000
44.05975342,-73.17145000
44.10743713,-67.37334000
44.15512085,-56.63934000
44.20280457,-50.88856000
44.25048828,-51.16530000
44.29817200,-54.57051000
44.34585571,-51.91219000
44.39353943,-53.29785000
44.44122314,-62.91115000
44.48890686,-73.32315000
44.53659058,-56.56838000
44.58427429,-52.16519000
44.63195801,-55.59499000
44.67964172,-55.23129000
44.72732544,-49.43647000
44.77500916,-51.87221000
44.82269287,-51.56496000
44.87037659,-52.09769000
44.91806030,-53.95156000
44.96574402,-52.67143000
45.01342773,-55.09178000
45.06111145,-56.43336000
45.10879517,-52.70844000
45.15647888,-50.83545000
45.20416260,-54.79637000
45.25184631,-62.00284000
45.29953003,-54.92502000
45.34721375,-57.98227000
45.39489746,-54.13486000
45.44258118,-50.35748000
45.49026489,-50.94305000
45.53794861,-52.48279000
45.58563232,-52.65647000
45.63331604,-53.64164000
45.68099976,-60.58880000
45.72868347,-63.21427000
45.77636719,-61.37313000
45.82405090,-52.52464000
45.87173462,-52.76439000
45.91941833,-56.36584000
45.96710205,-56.04800000
46.01478577,-57.50137000
46.06246948,-57.20039000
46.11015320,-54.19886000
46.15783691,-51.45388000
46.20552063,-51.33663000
46.25320435,-57.14709000
46.30088806,-60.58138000
46.34857178,-57.67792000
46.39625549,-52.71023000
46.44393921,-51.21515000
46.49162292,-56.87147000
46.53930664,-68.93195000
46.58699036,-60.48069000
46.63467407,-62.84288000
46.68235779,-67.70272000
46.73004150,-58.10592000
46.77772522,-56.30722000
46.82540894,-62.40565000
46.87309265,-59.49553000
46.92077637,-58.75082000
46.96846008,-65.23319000
47.01614380,-56.22886000
47.06382751,-54.32741000
47.11151123,-53.45363000
47.15919495,-52.13538000
47.20687866,-53.89084000
47.25456238,-65.61124000
47.30224609,-56.17719000
47.34992981,-51.88915000
47.39761353,-48.88826000
47.44529724,-50.07642000
47.49298096,-63.23402000
47.54066467,-60.64118000
47.58834839,-59.07070000
47.63603210,-58.62448000
47.68371582,-59.63901000
47.73139954,-76.48398000
47.77908325,-56.90069000
47.82676697,-56.06995000
47.87445068,-60.48413000
47.92213440,-69.77448000
47.96981812,-58.24441000
48.01750183,-56.06157000
48.06518555,-59.74269000
48.11286926,-70.31583000
48.16055298,-54.71133000
48.20823669,-50.50003000
48.25592041,-52.42381000
48.30360413,-62.43307000
48.35128784,-56.15559000
48.39897156,-56.13022000
48.44665527,-63.82151000
48.49433899,-56.01130000
48.54202271,-53.55860000
48.58970642,-51.52898000
48.63739014,-54.61892000
48.68507385,-68.53516000
48.73275757,-61.27479000
48.78044128,-52.72981000
48.82812500,-56.49060000
48.87580872,-65.11110000
48.92349243,-63.10517000
48.97117615,-66.91315000
49.01885986,-56.60595000
49.06654358,-54.02486000
49.11422729,-53.89878000
49.16191101,-56.09776000
49.20959473,-59.08170000
49.25727844,-68.55120000
49.30496216,-60.96530000
49.35264587,-58.35113000
49.40032959,-51.64083000
49.44801331,-53.72343000
49.49569702,-57.44386000
49.54338074,-56.36990000
49.59106445,-59.33954000
49.63874817,-79.89008000
49.68643188,-56.41211000
49.73411560,-52.73259000
49.78179932,-52.08781000
49.82948303,-56.29725000
49.87716675,-59.13420000
49.92485046,-71.42880000
49.97253418,-52.72902000
50.02021790,-52.17569000
50.06790161,-58.78901000
50.11558533,-62.84616000
50.16326904,-55.74036000
50.21095276,-57.13109000
50.25863647,-56.82174000
50.30632019,-52.16822000
50.35400391,-54.58601000
50.40168762,-71.93894000
50.44937134,-56.98698000
50.49705505,-56.69115000
50.54473877,-71.96183000
50.59242249,-60.44476000
50.64010620,-63.39946000
50.68778992,-61.90932000
50.73547363,-57.38936000
50.78315735,-51.94433000
50.83084106,-50.65162000
50.87852478,-51.17655000
50.92620850,-52.17051000
50.97389221,-55.19469000
51.02157593,-65.91786000
51.06925964,-61.60223000
51.11694336,-59.85000000
51.16462708,-58.02998000
51.21231079,-58.35092000
51.25999451,-51.10601000
51.30767822,-51.25378000
51.35536194,-62.14346000
51.40304565,-52.75196000
51.45072937,-49.70280000
51.49841309,-49.62385000
51.54609680,-51.99493000
51.59378052,-55.09348000
51.64146423,-55.84162000
51.68914795,-63.36517000
51.73683167,-56.18822000
51.78451538,-59.87529000
51.83219910,-65.84901000
51.87988281,-56.07491000
51.92756653,-51.89323000
51.97525024,-49.55337000
52.02293396,-50.33002000
52.07061768,-49.82748000
52.11830139,-48.94353000
52.16598511,-51.07533000
52.21366882,-54.02531000
52.26135254,-57.24182000
52.30903625,-62.05008000
52.35671997,-59.12569000
52.40440369,-59.25144000
52.45208740,-58.97112000
52.49977112,-64.56725000
52.54745483,-67.93509000
52.59513855,-57.72121000
52.64282227,-57.49152000
52.69050598,-55.44962000
52.73818970,-50.96986000
52.78587341,-52.32849000
52.83355713,-53.31095000
52.88124084,-58.86116000
52.92892456,-69.70748000
52.97660828,-59.76484000
53.02429199,-64.83382000
53.07197571,-58.27317000
53.11965942,-56.69874000
53.16734314,-67.94698000
53.21502686,-54.52606000
53.26271057,-54.07530000
53.31039429,-56.34818000
53.35807800,-58.22063000
53.40576172,-59.54765000
53.45344543,-62.37643000
53.50112915,-58.01660000
53.54881287,-58.91239000
53.59649658,-56.67186000
53.64418030,-52.56482000
53.69186401,-56.13639000
53.73954773,-53.31520000
53.78723145,-49.12414000
53.83491516,-49.30001000
53.88259888,-51.81287000
53.93028259,-53.09264000
53.97796631,-58.22090000
54.02565002,-66.67944000
54.07333374,-67.50060000
54.12101746,-51.31373000
54.16870117,-49.64230000
54.21638489,-55.34509000
54.26406860,-53.72295000
54.31175232,-49.98333000
54.35943604,-51.00470000
54.40711975,-62.83984000
54.45480347,-66.67130000
54.50248718,-62.71942000
54.55017090,-62.60209000
54.59785461,-57.15635000
54.64553833,-58.36139000
54.69322205,-55.73159000
54.74090576,-50.44492000
54.78858948,-52.84457000
54.83627319,-57.10769000
54.88395691,-55.35664000
54.93164063,-52.32024000
54.97932434,-52.02647000
55.02700806,-52.06110000
55.07469177,-57.17419000
55.12237549,-59.96440000
55.17005920,-59.71340000
55.21774292,-57.08292000
55.26542664,-56.37004000
55.31311035,-54.57252000
55.36079407,-55.41088000
55.40847778,-64.40051000
55.45616150,-56.31948000
55.50384521,-60.83450000
55.55152893,-61.52708000
55.59921265,-62.76784000
55.64689636,-59.57882000
55.69458008,-57.31648000
55.74226379,-56.04498000
55.78994751,-55.99974000
55.83763123,-55.69935000
55.88531494,-53.80397000
55.93299866,-55.02140000
55.98068237,-59.06050000
56.02836609,-61.29879000
56.07604980,-62.61515000
56.12373352,-56.49426000
56.17141724,-55.93514000
56.21910095,-59.87514000
56.26678467,-71.17694000
56.31446838,-58.63188000
56.36215210,-56.49588000
56.40983582,-60.97820000
56.45751953,-60.59403000
56.50520325,-52.90909000
56.55288696,-51.95747000
56.60057068,-60.98307000
56.64825439,-55.87196000
56.69593811,-51.83990000
56.74362183,-51.23624000
56.79130554,-54.02352000
56.83898926,-52.17934000
56.88667297,-50.44854000
56.93435669,-53.35392000
56.98204041,-58.10338000
57.02972412,-57.17397000
57.07740784,-54.88570000
57.12509155,-58.50708000
57.17277527,-60.43755000
57.22045898,-58.31680000
57.26814270,-61.53441000
57.31582642,-58.41371000
57.36351013,-68.35681000
57.41119385,-58.97834000
57.45887756,-58.51673000
57.50656128,-56.64910000
57.55424500,-53.52082000
57.60192871,-57.44463000
57.64961243,-68.26297000
57.69729614,-60.16776000
57.74497986,-56.12680000
57.79266357,-57.24571000
57.84034729,-54.14651000
57.88803101,-64.35550000
57.93571472,-59.41212000
57.98339844,-57.60992000
58.03108215,-61.35397000
58.07876587,-68.11443000
58.12644958,-60.04135000
58.17413330,-56.52306000
58.22181702,-57.57437000
58.26950073,-60.06015000
58.31718445,-56.43991000
58.36486816,-51.68616000
58.41255188,-53.73170000
58.46023560,-51.50429000
58.50791931,-51.55458000
58.55560303,-64.46681000
58.60328674,-56.71106000
58.65097046,-58.51131000
58.69865417,-56.32041000
58.74633789,-49.15385000
58.79402161,-47.32902000
58.84170532,-50.12457000
58.88938904,-56.63056000
58.93707275,-54.52560000
58.98475647,-54.01933000
59.03244019,-50.21954000
59.08012390,-49.24290000
59.12780762,-54.00308000
59.17549133,-50.22978000
59.22317505,-52.06971000
59.27085876,-55.53566000
59.31854248,-52.99236000
59.36622620,-69.91821000
59.41390991,-57.02102000
59.46159363,-63.33473000
59.50927734,-59.59576000
59.55696106,-59.06884000
59.60464478,-56.73249000
59.65232849,-54.46707000
59.70001221,-52.85442000
59.74769592,-51.58805000
59.79537964,-53.32669000
59.84306335,-59.19179000
59.89074707,-65.88132000
59.93843079,-57.29831000
59.98611450,-56.72644000
60.03379822,-68.73494000
60.08148193,-56.37443000
60.12916565,-60.87049000
60.17684937,-59.08060000
60.22453308,-54.89838000
60.27221680,-61.12812000
60.31990051,-51.61353000
60.36758423,-51.95862000
60.41526794,-70.03884000
60.46295166,-55.71752000
60.51063538,-52.94959000
60.55831909,-56.16253000
60.60600281,-61.21958000
60.65368652,-51.57638000
60.70137024,-53.29017000
60.74905396,-61.26080000
60.79673767,-59.80262000
60.84442139,-63.43420000
60.89210510,-84.15013000
60.93978882,-61.43058000
60.98747253,-54.32117000
61.03515625,-60.24814000
61.08283997,-61.38438000
61.13052368,-60.55112000
61.17820740,-60.70364000
61.22589111,-61.03660000
61.27357483,-62.56131000
61.32125854,-54.33374000
61.36894226,-52.37017000
61.41662598,-51.86534000
61.46430969,-57.15351000
61.51199341,-80.51026000
61.55967712,-56.11417000
61.60736084,-52.78612000
61.65504456,-51.46449000
61.70272827,-53.42825000
61.75041199,-56.68462000
61.79809570,-60.92257000
61.84577942,-61.49516000
61.89346313,-54.93866000
61.94114685,-53.01636000
61.98883057,-53.21109000
62.03651428,-50.79099000
62.08419800,-51.59328000
62.13188171,-54.89471000
62.17956543,-57.28600000
62.22724915,-65.36065000
62.27493286,-65.16259000
62.32261658,-56.41252000
62.37030029,-57.40015000
62.41798401,-60.97361000
62.46566772,-52.84212000
62.51335144,-51.26168000
62.56103516,-57.12211000
62.60871887,-56.95668000
62.65640259,-57.42599000
62.70408630,-68.64180000
62.75177002,-57.71356000
62.79945374,-57.54904000
62.84713745,-54.59367000
62.89482117,-53.00719000
62.94250488,-58.69021000
62.99018860,-61.58230000
63.03787231,-57.69723000
63.08555603,-55.90796000
63.13323975,-55.04208000
63.18092346,-56.45265000
63.22860718,-57.93563000
63.27629089,-63.57124000
63.32397461,-57.68121000
63.37165833,-53.55515000
63.41934204,-59.30771000
63.46702576,-61.73961000
63.51470947,-68.77900000
63.56239319,-61.26318000
63.61007690,-57.79545000
63.65776062,-56.14989000
63.70544434,-58.23672000
63.75312805,-56.73492000
63.80081177,-64.78270000
63.84849548,-67.30572000
63.89617920,-61.72806000
63.94386292,-51.69954000
63.99154663,-52.39647000
64.03923035,-58.30494000
64.08691406,-72.41704000
64.13459778,-60.35025000
64.18228149,-69.42287000
64.22996521,-58.09905000
64.27764893,-61.82935000
64.32533264,-62.86916000
64.37301636,-60.88512000
64.42070007,-59.28990000
64.46838379,-59.16972000
64.51606750,-56.85424000
64.56375122,-52.94574000
64.61143494,-54.45330000
64.65911865,-57.08813000
64.70680237,-58.27806000
64.75448608,-58.20963000
64.80216980,-52.65936000
64.84985352,-52.90462000
64.89753723,-61.11705000
64.94522095,-55.68388000
64.99290466,-58.68348000
65.04058838,-58.02755000
65.08827209,-54.41310000
65.13595581,-51.54726000
65.18363953,-50.97305000
65.23132324,-50.97404000
65.27900696,-56.84052000
65.32669067,-73.62533000
65.37437439,-60.39868000
65.42205811,-71.82735000
65.46974182,-61.70298000
65.51742554,-62.55903000
65.56510925,-53.13632000
65.61279297,-51.25329000
65.66047668,-56.53087000
65.70816040,-57.80540000
65.75584412,-58.38467000
65.80352783,-61.49055000
65.85121155,-59.96268000
65.89889526,-55.13470000
65.94657898,-53.77327000
65.99426270,-52.03979000
66.04194641,-51.64497000
66.08963013,-58.24776000
66.13731384,-64.59193000
66.18499756,-73.27056000
66.23268127,-69.71362000
66.28036499,-64.01271000
66.32804871,-61.09115000
66.37573242,-56.90981000
66.42341614,-60.36682000
66.47109985,-64.16397000
66.51878357,-63.21552000
66.56646729,-61.16857000
66.61415100,-55.83173000
66.66183472,-55.17466000
66.70951843,-55.78258000
66.75720215,-53.71616000
66.80488586,-54.36921000
66.85256958,-58.86467000
66.90025330,-54.17184000
66.94793701,-53.93525000
66.99562073,-65.45714000
67.04330444,-60.46716000
67.09098816,-58.88928000
67.13867188,-51.49357000
67.18635559,-47.51156000
67.23403931,-48.44650000
67.28172302,-51.05676000
67.32940674,-60.94961000
67.37709045,-55.80406000
67.42477417,-58.13673000
67.47245789,-68.30869000
67.52014160,-59.14673000
67.56782532,-53.54634000
67.61550903,-59.31800000
67.66319275,-57.74925000
67.71087646,-47.92327000
67.75856018,-45.20464000
67.80624390,-45.66728000
67.85392761,-48.20420000
67.90161133,-54.84491000
67.94929504,-62.02968000
67.99697876,-52.49817000
68.04466248,-52.40025000
68.09234619,-62.96718000
68.14002991,-63.11361000
68.18771362,-63.13766000
68.23539734,-61.12455000
68.28308105,-60.28510000
68.33076477,-58.65281000
68.37844849,-60.63427000
68.42613220,-59.89788000
68.47381592,-52.13905000
68.52149963,-53.08666000
68.56918335,-56.47401000
68.61686707,-65.58482000
68.66455078,-56.54251000
68.71223450,-67.30041000
68.75991821,-55.81678000
68.80760193,-65.64883000
68.85528564,-57.18204000
68.90296936,-59.02062000
68.95065308,-59.78098000
68.99833679,-58.14743000
69.04602051,-62.62761000
69.09370422,-56.20529000
69.14138794,-55.22431000
69.18907166,-59.30878000
69.23675537,-64.39594000
69.28443909,-59.86177000
69.33212280,-65.54406000
69.37980652,-58.63837000
69.42749023,-53.07915000
69.47517395,-53.59240000
69.52285767,-59.16029000
69.57054138,-66.66245000
69.61822510,-76.05271000
69.66590881,-55.39147000
69.71359253,-50.30102000
69.76127625,-53.91405000
69.80895996,-61.34977000
69.85664368,-67.07256000
69.90432739,-58.59102000
69.95201111,-52.35300000
69.99969482,-52.97626000
70.04737854,-59.83302000
70.09506226,-56.24506000
70.14274597,-55.04183000
70.19042969,-57.07271000
70.23811340,-52.36942000
70.28579712,-51.09677000
70.33348083,-51.56774000
70.38116455,-50.75471000
70.42884827,-53.81545000
70.47653198,-53.68551000
70.52421570,-53.61859000
70.57189941,-67.22124000
70.61958313,-60.96550000
70.66726685,-62.89959000
70.71495056,-65.40479000
70.76263428,-60.77696000
70.81031799,-53.52468000
70.85800171,-49.50137000
70.90568542,-53.34867000
70.95336914,-70.07873000
71.00105286,-66.04902000
71.04873657,-69.59827000
71.09642029,-68.08324000
71.14410400,-59.33551000
71.19178772,-59.13536000
71.23947144,-54.20644000
71.28715515,-57.01836000
71.33483887,-60.52664000
71.38252258,-57.12711000
71.43020630,-59.09884000
71.47789001,-63.32974000
71.52557373,-73.20673000
71.57325745,-59.61189000
71.62094116,-51.88774000
71.66862488,-47.89233000
71.71630859,-53.09310000
71.76399231,-60.90099000
71.81167603,-55.47826000
71.85935974,-52.92237000
71.90704346,-53.60603000
71.95472717,-61.82228000
72.00241089,-56.94538000
72.05009460,-58.19801000
72.09777832,-56.61607000
72.14546204,-49.03318000
72.19314575,-48.49649000
72.24082947,-52.88955000
72.28851318,-54.31383000
72.33619690,-55.63157000
72.38388062,-59.71678000
72.43156433,-64.50779000
72.47924805,-65.57101000
72.52693176,-60.27731000
72.57461548,-54.72992000
72.62229919,-54.90826000
72.66998291,-53.64837000
72.71766663,-54.29053000
72.76535034,-56.55258000
72.81303406,-63.41970000
72.86071777,-70.36076000
72.90840149,-54.01078000
72.95608521,-53.01733000
73.00376892,-67.33791000
73.05145264,-69.81416000
73.09913635,-56.72684000
73.14682007,-61.10493000
73.19450378,-56.79951000
73.24218750,-51.53450000
73.28987122,-58.36906000
73.33755493,-61.25803000
73.38523865,-57.09143000
73.43292236,-60.56252000
73.48060608,-63.87402000
73.52828979,-53.84566000
73.57597351,-51.59621000
73.62365723,-55.33130000
73.67134094,-66.14478000
73.71902466,-52.58659000
73.76670837,-50.47143000
73.81439209,-55.24163000
73.86207581,-57.53996000
73.90975952,-55.14511000
73.95744324,-57.08006000
74.00512695,-57.39062000
74.05281067,-61.37814000
74.10049438,-54.65833000
74.14817810,-55.55061000
74.19586182,-57.78360000
74.24354553,-57.76997000
74.29122925,-54.00675000
74.33891296,-51.32132000
74.38659668,-54.50308000
74.43428040,-52.69200000
74.48196411,-49.97255000
74.52964783,-52.77335000
74.57733154,-57.74064000
74.62501526,-55.73970000
74.67269897,-51.33157000
74.72038269,-50.53835000
74.76806641,-54.42715000
74.81575012,-62.52525000
74.86343384,-55.73282000
74.91111755,-54.61260000
74.95880127,-53.66926000
75.00648499,-54.08795000
75.05416870,-55.04437000
75.10185242,-55.99995000
75.14953613,-62.34016000
75.19721985,-51.01900000
75.24490356,-48.17628000
75.29258728,-50.64547000
75.34027100,-54.21131000
75.38795471,-62.08697000
75.43563843,-59.49833000
75.48332214,-56.81672000
75.53100586,-59.41323000
75.57868958,-58.12706000
75.62637329,-55.69958000
75.67405701,-52.72598000
75.72174072,-49.55799000
75.76942444,-48.74796000
75.81710815,-52.03515000
75.86479187,-52.62000000
75.91247559,-50.46556000
75.96015930,-55.56997000
76.00784302,-69.28752000
76.05552673,-67.15855000
76.10321045,-72.40714000
76.15089417,-62.83693000
76.19857788,-56.48183000
76.24626160,-57.21032000
76.29394531,-65.21035000
76.34162903,-59.40857000
76.38931274,-64.36819000
76.43699646,-72.91797000
76.48468018,-54.89153000
76.53236389,-55.27857000
76.58004761,-58.99603000
76.62773132,-51.35746000
76.67541504,-52.32709000
76.72309875,-62.99953000
76.77078247,-56.29441000
76.81846619,-50.79807000
76.86614990,-54.94036000
76.91383362,-60.67495000
76.96151733,-57.21227000
77.00920105,-60.60667000
77.05688477,-56.38722000
77.10456848,-56.28400000
77.15225220,-66.84009000
77.19993591,-54.08144000
77.24761963,-55.72958000
77.29530334,-62.33981000
77.34298706,-57.14886000
77.39067078,-54.40868000
77.43835449,-57.13605000
77.48603821,-56.84189000
77.53372192,-58.96949000
77.58140564,-62.28768000
77.62908936,-56.59557000
77.67677307,-51.39355000
77.72445679,-55.79675000
77.77214050,-63.07960000
77.81982422,-58.94408000
77.86750793,-62.42982000
77.91519165,-86.02329000
77.96287537,-71.11357000
78.01055908,-67.11369000
78.05824280,-57.20986000
78.10592651,-58.09662000
78.15361023,-66.05576000
78.20129395,-71.44443000
78.24897766,-70.45708000
78.29666138,-68.08693000
78.34434509,-57.72919000
78.39202881,-59.46291000
78.43971252,-67.06512000
78.48739624,-64.71755000
78.53507996,-66.34558000
78.58276367,-58.03322000
78.63044739,-55.43324000
78.67813110,-51.49973000
78.72581482,-52.01077000
78.77349854,-59.83099000
78.82118225,-61.74395000
78.86886597,-79.30507000
78.91654968,-59.81699000
78.96423340,-60.14111000
79.01191711,-56.23291000
79.05960083,-54.50356000
79.10728455,-59.80845000
79.15496826,-54.72925000
79.20265198,-51.61011000
79.25033569,-56.69291000
79.29801941,-59.43311000
79.34570313,-58.10920000
79.39338684,-58.90854000
79.44107056,-67.58447000
79.48875427,-65.27943000
79.53643799,-65.93553000
79.58412170,-69.86037000
79.63180542,-69.15336000
79.67948914,-57.11917000
79.72717285,-49.17883000
79.77485657,-48.35213000
79.82254028,-51.25091000
79.87022400,-51.02219000
79.91790771,-54.99165000
79.96559143,-66.70989000
80.01327515,-59.34553000
80.06095886,-55.31728000
80.10864258,-60.08386000
80.15632629,-71.91167000
80.20401001,-62.11547000
80.25169373,-56.34098000
80.29937744,-57.34865000
80.34706116,-57.83720000
80.39474487,-54.64326000
80.44242859,-57.69005000
80.49011230,-72.67525000
80.53779602,-62.13851000
80.58547974,-56.68373000
80.63316345,-52.59904000
80.68084717,-53.04453000
80.72853088,-51.90744000
80.77621460,-51.14830000
80.82389832,-50.58283000
80.87158203,-49.05992000
80.91926575,-53.68551000
80.96694946,-56.17849000
81.01463318,-51.64981000
81.06231689,-56.36755000
81.11000061,-56.13565000
81.15768433,-50.78481000
81.20536804,-50.90599000
81.25305176,-54.42916000
81.30073547,-52.99328000
81.34841919,-53.77169000
81.39610291,-54.39310000
81.44378662,-58.88389000
81.49147034,-61.62312000
81.53915405,-55.15071000
81.58683777,-58.39089000
81.63452148,-59.37470000
81.68220520,-52.58894000
81.72988892,-48.01846000
81.77757263,-49.26082000
81.82525635,-52.54918000
81.87294006,-57.72699000
81.92062378,-57.69084000
81.96830750,-55.46712000
82.01599121,-59.19992000
82.06367493,-58.43191000
82.11135864,-52.17943000
82.15904236,-54.22484000
82.20672607,-65.06091000
82.25440979,-60.19596000
82.30209351,-55.08499000
82.34977722,-57.37435000
82.39746094,-59.15453000
82.44514465,-57.91568000
82.49282837,-55.14423000
82.54051208,-52.86534000
82.58819580,-55.08186000
82.63587952,-62.14991000
82.68356323,-56.18672000
82.73124695,-55.92711000
82.77893066,-54.17316000
82.82661438,-53.80841000
82.87429810,-60.87651000
82.92198181,-62.62042000
82.96966553,-57.72425000
83.01734924,-64.18356000
83.06503296,-75.36910000
83.11271667,-57.33495000
83.16040039,-56.89832000
83.20808411,-57.58366000
83.25576782,-54.47314000
83.30345154,-57.66989000
83.35113525,-63.48389000
83.39881897,-57.02660000
83.44650269,-56.67071000
83.49418640,-63.81424000
83.54187012,-65.77402000
83.58955383,-60.56618000
83.63723755,-73.98280000
83.68492126,-54.57706000
83.73260498,-52.89425000
83.78028870,-52.09634000
83.82797241,-52.45707000
83.87565613,-55.43291000
83.92333984,-52.20425000
83.97102356,-53.42144000
84.01870728,-69.27467000
84.06639099,-58.66866000
84.11407471,-58.75544000
84.16175842,-57.17718000
84.20944214,-53.64808000
84.25712585,-52.79701000
84.30480957,-52.89274000
84.35249329,-54.36662000
84.40017700,-55.62187000
84.44786072,-51.28088000
84.49554443,-52.52260000
84.54322815,-62.43737000
84.59091187,-59.35911000
84.63859558,-58.47773000
84.68627930,-58.76388000
84.73396301,-59.57804000
84.78164673,-72.11182000
84.82933044,-55.63656000
84.87701416,-53.38278000
84.92469788,-56.94517000
84.97238159,-60.18616000
85.02006531,-56.33496000
85.06774902,-76.67934000
85.11543274,-56.51334000
85.16311646,-56.43883000
85.21080017,-55.96776000
85.25848389,-64.61374000
85.30616760,-54.40979000
85.35385132,-52.37366000
85.40153503,-56.30972000
85.44921875,-53.30053000
85.49690247,-60.65451000
85.54458618,-62.58970000
85.59226990,-53.22353000
85.63995361,-50.39399000
85.68763733,-50.55033000
85.73532104,-55.63130000
85.78300476,-48.91409000
85.83068848,-48.43323000
85.87837219,-54.71001000
85.92605591,-53.52113000
85.97373962,-52.12854000
86.02142334,-63.85790000
86.06910706,-54.32236000
86.11679077,-53.79354000
86.16447449,-59.43946000
86.21215820,-64.09551000
86.25984192,-56.43002000
86.30752563,-55.07690000
86.35520935,-55.36021000
86.40289307,-57.26112000
86.45057678,-54.27190000
86.49826050,-54.67136000
86.54594421,-60.97334000
86.59362793,-86.46149000
86.64131165,-66.10925000
86.68899536,-60.18384000
86.73667908,-56.42201000
86.78436279,-54.09437000
86.83204651,-54.68296000
86.87973022,-58.01785000
86.92741394,-64.78696000
86.97509766,-58.01972000
87.02278137,-55.60556000
87.07046509,-53.99306000
87.11814880,-52.60949000
87.16583252,-54.64260000
87.21351624,-51.63576000
87.26119995,-51.07164000
87.30888367,-54.40908000
87.35656738,-58.58540000
87.40425110,-55.67421000
87.45193481,-53.62516000
87.49961853,-54.86723000
87.54730225,-66.58791000
87.59498596,-50.64306000
87.64266968,-50.71264000
87.69035339,-54.42606000
87.73803711,-51.40038000
87.78572083,-56.42861000
87.83340454,-74.96523000
87.88108826,-68.43051000
87.92877197,-56.14575000
87.97645569,-51.67243000
88.02413940,-52.03205000
88.07182312,-55.86805000
88.11950684,-56.46798000
88.16719055,-59.73144000
88.21487427,-59.73590000
88.26255798,-62.24538000
88.31024170,-57.82265000
88.35792542,-55.12153000
88.40560913,-56.74461000
88.45329285,-63.81411000
88.50097656,-63.29945000
88.54866028,-55.71846000
88.59634399,-55.66202000
88.64402771,-63.74726000
88.69171143,-67.50647000
88.73939514,-75.53822000
88.78707886,-65.52380000
88.83476257,-63.88592000
88.88244629,-55.96012000
88.93013000,-51.74465000
88.97781372,-53.52397000
89.02549744,-54.03477000
89.07318115,-55.84830000
89.12086487,-73.82364000
89.16854858,-56.89834000
89.21623230,-54.55507000
89.26391602,-54.88037000
89.31159973,-55.67289000
89.35928345,-63.75200000
89.40696716,-62.42965000
89.45465088,-59.84356000
89.50233459,-60.99296000
89.55001831,-72.32199000
89.59770203,-58.92743000
89.64538574,-73.57729000
89.69306946,-51.61178000
89.74075317,-52.39538000
89.78843689,-58.77058000
89.83612061,-59.76002000
89.88380432,-63.78069000
89.93148804,-61.81554000
89.97917175,-55.96393000
90.02685547,-64.19137000
90.07453918,-60.64660000
90.12222290,-54.93765000
90.16990662,-53.12828000
90.21759033,-56.48555000
90.26527405,-59.15569000
90.31295776,-64.33274000
90.36064148,-63.87074000
90.40832520,-51.33783000
90.45600891,-51.72556000
90.50369263,-59.97766000
90.55137634,-56.80256000
90.59906006,-57.69244000
90.64674377,-61.04101000
90.69442749,-62.45144000
90.74211121,-59.33552000
90.78979492,-53.03141000
90.83747864,-49.49551000
90.88516235,-51.16645000
90.93284607,-62.42621000
90.98052979,-61.77777000
91.02821350,-59.21098000
91.07589722,-57.30265000
91.12358093,-53.70782000
91.17126465,-53.49681000
91.21894836,-53.04262000
91.26663208,-54.87989000
91.31431580,-56.78608000
91.36199951,-56.92380000
91.40968323,-59.18813000
91.45736694,-58.38334000
91.50505066,-52.83007000
91.55273438,-51.20590000
91.60041809,-52.55964000
91.64810181,-56.32646000
91.69578552,-60.70741000
91.74346924,-57.72672000
91.79115295,-59.64925000
91.83883667,-62.63490000
91.88652039,-61.03390000
91.93420410,-58.86075000
91.98188782,-56.48481000
92.02957153,-56.12556000
92.07725525,-59.61923000
92.12493896,-84.75302000
92.17262268,-58.31581000
92.22030640,-56.49136000
92.26799011,-61.89532000
92.31567383,-63.60599000
92.36335754,-67.74019000
92.41104126,-59.27749000
92.45872498,-60.18994000
92.50640869,-54.97869000
92.55409241,-57.12675000
92.60177612,-66.65794000
92.64945984,-59.37259000
92.69714355,-69.05642000
92.74482727,-62.25029000
92.79251099,-56.43629000
92.84019470,-61.36307000
92.88787842,-53.14418000
92.93556213,-52.21533000
92.98324585,-60.21384000
93.03092957,-53.86145000
93.07861328,-53.15794000
93.12629700,-53.59930000
93.17398071,-51.03077000
93.22166443,-54.80777000
93.26934814,-63.70375000
93.31703186,-59.38097000
93.36471558,-54.92521000
93.41239929,-53.63270000
93.46008301,-65.85040000
93.50776672,-60.04211000
93.55545044,-57.84360000
93.60313416,-56.49688000
93.65081787,-54.78275000
93.69850159,-50.18342000
93.74618530,-48.18458000
93.79386902,-50.40470000
93.84155273,-56.63838000
93.88923645,-63.44788000
93.93692017,-53.93955000
93.98460388,-58.59215000
94.03228760,-58.82686000
94.07997131,-55.72614000
94.12765503,-56.46929000
94.17533875,-56.42949000
94.22302246,-61.18234000
94.27070618,-55.48093000
94.31838989,-53.01770000
94.36607361,-56.11739000
94.41375732,-57.59825000
94.46144104,-55.80972000
94.50912476,-82.75180000
94.55680847,-54.20006000
94.60449219,-51.51093000
94.65217590,-58.29150000
94.69985962,-56.32088000
94.74754333,-52.15284000
94.79522705,-52.12700000
94.84291077,-52.34367000
94.89059448,-53.89126000
94.93827820,-58.61099000
94.98596191,-56.71611000
95.03364563,-54.17611000
95.08132935,-56.38806000
95.12901306,-62.69918000
95.17669678,-57.40833000
95.22438049,-53.33385000
95.27206421,-57.48687000
95.31974792,-73.35100000
95.36743164,-58.75245000
95.41511536,-52.03470000
95.46279907,-48.85311000
95.51048279,-49.95473000
95.55816650,-53.86778000
95.60585022,-56.65476000
95.65353394,-54.34038000
95.70121765,-53.59044000
95.74890137,-56.69804000
95.79658508,-59.23935000
95.84426880,-55.61983000
95.89195251,-55.54955000
95.93963623,-56.49264000
95.98731995,-52.95242000
96.03500366,-56.11926000
96.08268738,-61.62043000
96.13037109,-58.00600000
96.17805481,-58.36361000
96.22573853,-53.88014000
96.27342224,-54.38018000
96.32110596,-56.01635000
96.36878967,-61.24521000
96.41647339,-71.18092000
96.46415710,-76.07614000
96.51184082,-59.57327000
96.55952454,-52.69976000
96.60720825,-52.11148000
96.65489197,-57.41323000
96.70257568,-51.09135000
96.75025940,-53.77920000
96.79794312,-57.94036000
96.84562683,-53.95132000
96.89331055,-51.06667000
96.94099426,-50.62331000
96.98867798,-52.14464000
97.03636169,-56.40359000
97.08404541,-60.43390000
97.13172913,-48.81906000
97.17941284,-51.83847000
97.22709656,-61.66843000
97.27478027,-54.62160000
97.32246399,-53.21370000
97.37014771,-50.32133000
97.41783142,-51.30418000
97.46551514,-60.12902000
97.51319885,-51.57717000
97.56088257,-48.57595000
97.60856628,-50.89032000
97.65625000,-59.60720000
97.70393372,-57.82273000
97.75161743,-52.72033000
97.79930115,-56.21541000
97.84698486,-54.17517000
97.89466858,-61.08043000
97.94235229,-61.07277000
97.99003601,-53.57413000
98.03771973,-53.22569000
98.08540344,-54.12673000
98.13308716,-50.67475000
98.18077087,-49.16319000
98.22845459,-53.41293000
98.27613831,-64.96156000
98.32382202,-64.90336000
98.37150574,-53.68461000
98.41918945,-52.07329000
98.46687317,-54.10760000
98.51455688,-53.19975000
98.56224060,-56.45485000
98.60992432,-56.92249000
98.65760803,-51.20105000
98.70529175,-55.03255000
98.75297546,-70.11094000
98.80065918,-61.58451000
98.84834290,-64.48724000
98.89602661,-62.62629000
98.94371033,-54.49539000
98.99139404,-56.39123000
99.03907776,-61.60114000
99.08676147,-62.88800000
99.13444519,-53.85561000
99.18212891,-49.45580000
99.22981262,-50.53020000
99.27749634,-57.48016000
99.32518005,-64.33166000
99.37286377,-58.75992000
99.42054749,-61.83916000
99.46823120,-53.80012000
99.51591492,-55.99783000
99.56359863,-59.43311000
99.61128235,-56.16790000
99.65896606,-54.49262000
99.70664978,-51.80186000
99.75433350,-53.62164000
99.80201721,-57.57099000
99.84970093,-53.68942000
99.89738464,-52.98909000
99.94506836,-59.14964000
99.99275208,-65.15482000
100.04043579,-58.17382000
100.08811951,-56.83271000
100.13580322,-55.97686000
100.18348694,-57.31568000
100.23117065,-54.21308000
100.27885437,-54.80983000
100.32653809,-56.58821000
100.37422180,-52.27940000
100.42190552,-51.81786000
100.46958923,-59.62935000
100.51727295,-69.22871000
100.56495667,-65.02431000
100.61264038,-60.31848000
100.66032410,-62.63245000
100.70800781,-55.38451000
100.75569153,-50.89223000
100.80337524,-50.38555000
100.85105896,-55.13683000
100.89874268,-59.74783000
100.94642639,-52.38159000
100.99411011,-50.23347000
101.04179382,-54.89374000
101.08947754,-55.97083000
101.13716125,-59.88245000
101.18484497,-68.92349000
101.23252869,-53.18790000
101.28021240,-50.69988000
101.32789612,-55.75787000
101.37557983,-59.10706000
101.42326355,-55.16011000
101.47094727,-59.58268000
101.51863098,-61.96418000
101.56631470,-55.03079000
101.61399841,-51.26291000
101.66168213,-55.94326000
101.70936584,-56.97382000
101.75704956,-51.46703000
101.80473328,-51.26300000
101.85241699,-52.33887000
101.90010071,-52.45795000
101.94778442,-51.92113000
101.99546814,-52.05543000
102.04315186,-52.58667000
102.09083557,-53.04078000
102.13851929,-52.89640000
102.18620300,-53.44295000
102.23388672,-51.15612000
102.28157043,-53.58337000
102.32925415,-63.42070000
102.37693787,-62.89808000
102.42462158,-59.20781000
102.47230530,-55.92305000
102.51998901,-49.89767000
102.56767273,-50.50530000
102.61535645,-54.51835000
102.66304016,-53.08608000
102.71072388,-55.06167000
102.75840759,-62.20366000
102.80609131,-51.43858000
102.85377502,-53.73503000
102.90145874,-60.47873000
102.94914246,-64.82126000
102.99682617,-60.85209000
103.04450989,-59.55811000
103.09219360,-58.24003000
103.13987732,-55.32925000
103.18756104,-57.38837000
103.23524475,-64.68620000
103.28292847,-56.76642000
103.33061218,-59.23567000
103.37829590,-57.13032000
103.42597961,-54.30212000
103.47366333,-56.45002000
103.52134705,-58.50766000
103.56903076,-63.98676000
103.61671448,-54.94119000
103.66439819,-52.73873000
103.71208191,-56.59726000
103.75976563,-51.56828000
103.80744934,-53.51043000
103.85513306,-66.24887000
103.90281677,-61.01313000
103.95050049,-65.21828000
103.99818420,-60.01506000
104.04586792,-54.83408000
104.09355164,-52.14511000
104.14123535,-51.81187000
104.18891907,-56.21368000
104.23660278,-59.59454000
104.28428650,-54.38682000
104.33197021,-51.89205000
104.37965393,-55.80929000
104.42733765,-67.04237000
104.47502136,-63.28292000
104.52270508,-60.08358000
104.57038879,-54.30794000
104.61807251,-54.95858000
104.66575623,-60.84773000
104.71343994,-62.53263000
104.76112366,-54.14825000
104.80880737,-54.94617000
104.85649109,-61.44384000
104.90417480,-59.40966000
104.95185852,-55.86576000
104.99954224,-66.39639000
105.04722595,-65.01098000
105.09490967,-60.59632000
105.14259338,-59.03593000
105.19027710,-56.55202000
105.23796082,-49.60699000
105.28564453,-50.73167000
105.33332825,-58.59791000
105.38101196,-58.84460000
105.42869568,-56.25727000
105.47637939,-63.76668000
105.52406311,-58.70838000
105.57174683,-57.59430000
105.61943054,-53.99783000
105.66711426,-52.29124000
105.71479797,-52.18419000
105.76248169,-56.21746000
105.81016541,-57.14523000
105.85784912,-59.97843000
105.90553284,-66.67103000
105.95321655,-59.27126000
106.00090027,-56.62592000
106.04858398,-72.25450000
106.09626770,-55.54339000
106.14395142,-56.72619000
106.19163513,-59.98211000
106.23931885,-64.36400000
106.28700256,-73.32198000
106.33468628,-63.45301000
106.38237000,-56.88900000
106.43005371,-56.93386000
106.47773743,-58.05210000
106.52542114,-52.58215000
106.57310486,-54.23692000
106.62078857,-59.83298000
106.66847229,-57.53794000
106.71615601,-55.30524000
106.76383972,-57.51423000
106.81152344,-57.47795000
106.85920715,-53.32645000
106.90689087,-50.57816000
106.95457458,-50.89407000
107.00225830,-54.21151000
107.04994202,-53.50937000
107.09762573,-51.50819000
107.14530945,-52.62267000
107.19299316,-57.79070000
107.24067688,-62.50623000
107.28836060,-60.65903000
107.33604431,-60.18717000
107.38372803,-61.84645000
107.43141174,-57.67531000
107.47909546,-57.71246000
107.52677917,-62.12498000
107.57446289,-56.84999000
107.62214661,-54.97080000
107.66983032,-53.31257000
107.71751404,-56.51861000
107.76519775,-60.80345000
107.81288147,-61.21364000
107.86056519,-59.51149000
107.90824890,-54.52324000
107.95593262,-53.42855000
108.00361633,-57.68394000
108.05130005,-57.96375000
108.09898376,-53.02744000
108.14666748,-55.65269000
108.19435120,-55.70847000
108.24203491,-54.25075000
108.28971863,-63.24070000
108.33740234,-59.02039000
108.38508606,-57.52416000
108.43276978,-56.29414000
108.48045349,-52.93501000
108.52813721,-52.54379000
108.57582092,-52.60587000
108.62350464,-53.46526000
108.67118835,-54.40071000
108.71887207,-49.68529000
108.76655579,-51.45670000
108.81423950,-60.70757000
108.86192322,-54.84649000
108.90960693,-53.87589000
108.95729065,-58.62530000
109.00497437,-74.11625000
109.05265808,-58.02766000
109.10034180,-57.33625000
109.14802551,-59.79145000
109.19570923,-59.25076000
109.24339294,-59.39744000
109.29107666,-61.17093000
109.33876038,-61.13044000
109.38644409,-57.32250000
109.43412781,-53.39510000
109.48181152,-55.07961000
109.52949524,-64.17122000
109.57717896,-63.20232000
109.62486267,-64.22647000
109.67254639,-62.24460000
109.72023010,-54.89965000
109.76791382,-51.09763000
109.81559753,-49.93339000
109.86328125,-58.75799000
109.91096497,-58.98309000
109.95864868,-67.62743000
110.00633240,-54.96188000
110.05401611,-54.93573000
110.10169983,-61.46430000
110.14938354,-63.06829000
110.19706726,-69.92506000
110.24475098,-58.50091000
110.29243469,-73.04617000
110.34011841,-51.81633000
110.38780212,-49.85126000
110.43548584,-51.53728000
110.48316956,-56.88045000
110.53085327,-60.81930000
110.57853699,-57.43666000
110.62622070,-64.69505000
110.67390442,-58.37152000
110.72158813,-58.11228000
110.76927185,-56.30064000
110.81695557,-58.76321000
110.86463928,-58.87923000
110.91232300,-74.13997000
110.96000671,-57.35365000
111.00769043,-60.16460000
111.05537415,-60.71411000
111.10305786,-57.12418000
111.15074158,-68.81398000
111.19842529,-60.56079000
111.24610901,-61.17167000
111.29379272,-61.07439000
111.34147644,-53.52684000
111.38916016,-57.51220000
111.43684387,-65.48131000
111.48452759,-59.82970000
111.53221130,-69.13378000
111.57989502,-63.92292000
111.62757874,-62.74234000
111.67526245,-62.05954000
111.72294617,-53.29856000
111.77062988,-57.10960000
111.81831360,-54.51937000
111.86599731,-54.89194000
111.91368103,-60.43450000
111.96136475,-82.71225000
112.00904846,-54.86720000
112.05673218,-52.74138000
112.10441589,-58.94367000
112.15209961,-52.71414000
112.19978333,-49.90764000
112.24746704,-51.71176000
112.29515076,-65.72741000
112.34283447,-64.34214000
112.39051819,-58.64246000
112.43820190,-54.22352000
112.48588562,-54.37166000
112.53356934,-55.25317000
112.58125305,-56.28934000
112.62893677,-59.64125000
112.67662048,-54.69626000
112.72430420,-61.26523000
112.77198792,-56.48791000
112.81967163,-53.57690000
112.86735535,-57.48764000
112.91503906,-56.21064000
112.96272278,-51.90085000
113.01040649,-55.84836000
113.05809021,-62.48533000
113.10577393,-67.26043000
113.15345764,-61.16377000
113.20114136,-56.00969000
113.24882507,-64.24660000
113.29650879,-62.81255000
113.34419250,-58.18828000
113.39187622,-58.76148000
113.43955994,-53.38184000
113.48724365,-52.35601000
113.53492737,-53.71876000
113.58261108,-55.13345000
113.63029480,-56.49537000
113.67797852,-51.68985000
113.72566223,-55.33421000
113.77334595,-54.73108000
113.82102966,-52.35483000
113.86871338,-67.00645000
113.91639709,-56.28561000
113.96408081,-50.32236000
114.01176453,-48.05711000
114.05944824,-50.40799000
114.10713196,-55.93769000
114.15481567,-56.43549000
114.20249939,-55.68768000
114.25018311,-59.49277000
114.29786682,-56.71371000
114.34555054,-52.84066000
114.39323425,-52.88956000
114.44091797,-52.95546000
114.48860168,-53.54792000
114.53628540,-53.69654000
114.58396912,-51.97973000
114.63165283,-57.17834000
114.67933655,-58.37752000
114.72702026,-59.98824000
114.77470398,-65.86209000
114.82238770,-62.33042000
114.87007141,-60.68336000
114.91775513,-52.89141000
114.96543884,-56.16345000
115.01312256,-51.97642000
115.06080627,-57.09787000
115.10848999,-61.68295000
115.15617371,-56.42738000
115.20385742,-56.31227000
115.25154114,-57.82598000
115.29922485,-65.08092000
115.34690857,-62.41936000
115.39459229,-57.55783000
115.44227600,-59.19817000
115.48995972,-61.06094000
115.53764343,-57.79548000
115.58532715,-58.21636000
115.63301086,-64.81910000
115.68069458,-60.79337000
115.72837830,-53.07843000
115.77606201,-51.75372000
115.82374573,-60.45502000
115.87142944,-54.52741000
115.91911316,-50.80246000
115.96679688,-52.41872000
116.01448059,-58.93745000
116.06216431,-59.46373000
116.10984802,-54.23677000
116.15753174,-62.07722000
116.20521545,-59.22117000
116.25289917,-60.50800000
116.30058289,-53.89759000
116.34826660,-52.90119000
116.39595032,-52.52468000
116.44363403,-57.27213000
116.49131775,-59.65727000
116.53900146,-59.96334000
116.58668518,-58.30638000
116.63436890,-54.05400000
116.68205261,-54.02209000
116.72973633,-55.89516000
116.77742004,-55.40841000
116.82510376,-60.40487000
116.87278748,-64.44097000
116.92047119,-61.18252000
116.96815491,-65.15781000
117.01583862,-65.43872000
117.06352234,-71.82457000
117.11120605,-73.44435000
117.15888977,-62.71626000
117.20657349,-53.05460000
117.25425720,-53.71751000
117.30194092,-59.84751000
117.34962463,-60.90559000
117.39730835,-60.72134000
117.44499207,-60.92737000
117.49267578,-57.00487000
117.54035950,-54.70316000
117.58804321,-53.18439000
117.63572693,-60.89052000
117.68341064,-54.18603000
117.73109436,-55.09140000
117.77877808,-58.69935000
117.82646179,-61.24769000
117.87414551,-66.85116000
117.92182922,-63.18063000
117.96951294,-58.17012000
118.01719666,-62.00806000
118.06488037,-66.16513000
118.11256409,-61.78395000
118.16024780,-53.85961000
118.20793152,-54.25547000
118.25561523,-57.58524000
118.30329895,-59.18425000
118.35098267,-61.40063000
118.39866638,-54.30902000
118.44635010,-55.47132000
118.49403381,-57.63848000
118.54171753,-58.33642000
118.58940125,-56.68438000
118.63708496,-64.18538000
118.68476868,-61.72408000
118.73245239,-63.66747000
118.78013611,-64.48827000
118.82781982,-63.10157000
118.87550354,-59.44863000
118.92318726,-55.59345000
118.97087097,-58.37093000
119.01855469,-51.38271000
119.06623840,-53.63163000
119.11392212,-59.86818000
119.16160583,-63.27954000
119.20928955,-63.48846000
119.25697327,-57.23087000
119.30465698,-54.63269000
119.35234070,-59.13176000
119.40002441,-55.60727000
119.44770813,-55.38203000
119.49539185,-52.96103000
119.54307556,-54.73064000
119.59075928,-54.44031000
119.63844299,-56.75846000
119.68612671,-61.87827000
119.73381042,-60.60600000
119.78149414,-63.65501000
119.82917786,-58.38745000
119.87686157,-53.08281000
119.92454529,-54.37126000
119.97222900,-61.43167000
120.01991272,-71.87297000
120.06759644,-62.06119000
120.11528015,-58.24484000
120.16296387,-61.98026000
120.21064758,-67.64779000
120.25833130,-58.21270000
120.30601501,-57.58949000
120.35369873,-63.55376000
120.40138245,-53.26347000
120.44906616,-49.31274000
120.49674988,-52.67654000
120.54443359,-62.65001000
120.59211731,-65.71990000
120.63980103,-69.97704000
120.68748474,-67.60629000
120.73516846,-58.20674000
120.78285217,-53.72637000
120.83053589,-51.39767000
120.87821960,-55.24515000
120.92590332,-55.03902000
120.97358704,-51.45720000
121.02127075,-53.98172000
121.06895447,-60.75613000
121.11663818,-52.98435000
121.16432190,-50.97674000
121.21200562,-54.18993000
121.25968933,-57.99524000
121.30737305,-64.35289000
121.35505676,-55.87639000
121.40274048,-53.85586000
121.45042419,-53.98872000
121.49810791,-50.82596000
121.54579163,-48.53833000
121.59347534,-49.77460000
121.64115906,-65.65019000
121.68884277,-52.85756000
121.73652649,-58.00583000
121.78421021,-62.70057000
121.83189392,-65.31731000
121.87957764,-54.26310000
121.92726135,-51.54799000
121.97494507,-51.15495000
122.02262878,-49.60287000
122.07031250,-52.61109000
122.11799622,-55.93420000
122.16567993,-57.03613000
122.21336365,-56.13404000
122.26104736,-53.14839000
122.30873108,-62.99089000
122.35641479,-58.42781000
122.40409851,-50.11036000
122.45178223,-50.77782000
122.49946594,-55.83852000
122.54714966,-53.64030000
122.59483337,-55.92722000
122.64251709,-58.00026000
122.69020081,-55.43837000
122.73788452,-54.33750000
122.78556824,-64.62920000
122.83325195,-58.15115000
122.88093567,-58.50582000
122.92861938,-73.99664000
122.97630310,-57.81100000
123.02398682,-57.45650000
123.07167053,-56.02113000
123.11935425,-57.84856000
123.16703796,-61.22616000
123.21472168,-61.62166000
123.26240540,-74.88223000
123.31008911,-66.15063000
123.35777283,-57.79259000
123.40545654,-53.36866000
123.45314026,-49.03824000
123.50082397,-48.92290000
123.54850769,-54.46857000
123.59619141,-74.71082000
123.64387512,-60.02123000
123.69155884,-68.14185000
123.73924255,-61.42999000
123.78692627,-58.91586000
123.83460999,-57.76577000
123.88229370,-53.13696000
123.92997742,-50.85781000
123.97766113,-48.81409000
124.02534485,-49.59023000
124.07302856,-56.45673000
124.12071228,-51.35108000
124.16839600,-51.78669000
124.21607971,-56.48528000
124.26376343,-57.16825000
124.31144714,-53.71889000
124.35913086,-54.01129000
124.40681458,-56.77280000
124.45449829,-53.09938000
124.50218201,-53.72135000
124.54986572,-57.15385000
124.59754944,-54.17408000
124.64523315,-55.46801000
124.69291687,-56.34688000
124.74060059,-53.30473000
124.78828430,-54.19127000
124.83596802,-65.03239000
124.88365173,-59.45469000
124.93133545,-58.29026000
124.97901917,-56.95934000
125.02670288,-59.36860000
125.07438660,-62.89906000
125.12207031,-59.05194000
125.16975403,-57.60048000
125.21743774,-55.80517000
125.26512146,-56.60824000
125.31280518,-66.60298000
125.36048889,-55.51678000
125.40817261,-55.86635000
125.45585632,-60.68566000
125.50354004,-61.28941000
125.55122375,-51.06245000
125.59890747,-48.78851000
125.64659119,-56.15882000
125.69427490,-58.36264000
125.74195862,-58.22408000
125.78964233,-59.31131000
125.83732605,-55.09878000
125.88500977,-59.96323000
125.93269348,-54.71310000
125.98037720,-53.01210000
126.02806091,-53.25340000
126.07574463,-54.34047000
126.12342834,-55.39532000
126.17111206,-55.20486000
126.21879578,-56.94813000
126.26647949,-53.16123000
126.31416321,-55.58572000
126.36184692,-63.82241000
126.40953064,-57.01994000
126.45721436,-59.76731000
126.50489807,-55.53749000
126.55258179,-51.65865000
126.60026550,-62.08936000
126.64794922,-54.56818000
126.69563293,-55.15271000
126.74331665,-55.34441000
126.79100037,-55.37608000
126.83868408,-54.40205000
126.88636780,-59.73139000
126.93405151,-57.31516000
126.98173523,-54.38863000
127.02941895,-58.95079000
127.07710266,-57.00990000
127.12478638,-79.53967000
127.17247009,-68.14409000
127.22015381,-57.79402000
127.26783752,-61.19028000
127.31552124,-51.99318000
127.36320496,-46.98996000
127.41088867,-49.16184000
127.45857239,-53.01000000
127.50625610,-58.70018000
127.55393982,-59.57828000
127.60162354,-59.26381000
127.64930725,-65.77174000
127.69699097,-58.33712000
127.74467468,-57.16702000
127.79235840,-57.65209000
127.84004211,-59.87846000
127.88772583,-57.32978000
127.93540955,-57.57293000
127.98309326,-59.53209000
128.03077698,-56.44443000
128.07846069,-54.68190000
128.12614441,-56.92673000
128.17382813,-58.06781000
128.22151184,-53.96012000
128.26919556,-55.71905000
128.31687927,-68.16787000
128.36456299,-53.70008000
128.41224670,-56.23410000
128.45993042,-58.45273000
128.50761414,-57.97989000
128.55529785,-57.15325000
128.60298157,-65.57117000
128.65066528,-57.01163000
128.69834900,-55.02586000
128.74603271,-60.72546000
128.79371643,-71.83654000
128.84140015,-56.87175000
128.88908386,-52.18317000
128.93676758,-50.79718000
128.98445129,-53.41558000
129.03213501,-59.36126000
129.07981873,-59.93406000
129.12750244,-53.47345000
129.17518616,-51.78601000
129.22286987,-51.71890000
129.27055359,-56.54801000
129.31823730,-70.17918000
129.36592102,-58.63157000
129.41360474,-56.34796000
129.46128845,-51.42844000
129.50897217,-51.09447000
129.55665588,-52.59514000
129.60433960,-52.55661000
129.65202332,-52.58232000
129.69970703,-51.97067000
129.74739075,-54.03512000
129.79507446,-57.19769000
129.84275818,-58.07834000
129.89044189,-57.42406000
129.93812561,-59.39241000
129.98580933,-58.60069000
130.03349304,-68.15078000
130.08117676,-61.14211000
130.12886047,-58.25070000
130.17654419,-69.07619000
130.22422791,-51.25515000
130.27191162,-48.57376000
130.31959534,-51.12627000
130.36727905,-51.97270000
130.41496277,-57.56098000
130.46264648,-66.51746000
130.51033020,-57.01511000
130.55801392,-52.95582000
130.60569763,-53.93467000
130.65338135,-56.54319000
130.70106506,-52.42737000
130.74874878,-51.19068000
130.79643250,-51.79650000
130.84411621,-52.66756000
130.89179993,-65.95412000
130.93948364,-64.66615000
130.98716736,-83.71304000
131.03485107,-67.42234000
131.08253479,-77.59480000
131.13021851,-67.16017000
131.17790222,-57.64643000
131.22558594,-56.21078000
131.27326965,-52.41702000
131.32095337,-51.65785000
131.36863708,-56.08505000
131.41632080,-59.70498000
131.46400452,-57.01536000
131.51168823,-60.11140000
131.55937195,-57.82081000
131.60705566,-60.23335000
131.65473938,-57.80486000
131.70242310,-66.28119000
131.75010681,-62.06444000
131.79779053,-63.44582000
131.84547424,-67.99631000
131.89315796,-66.78142000
131.94084167,-67.85432000
131.98852539,-72.50934000
132.03620911,-63.51949000
132.08389282,-57.33992000
132.13157654,-56.96137000
132.17926025,-73.41610000
132.22694397,-62.06213000
132.27462769,-52.75860000
132.32231140,-51.69720000
132.36999512,-57.20457000
132.41767883,-65.28751000
132.46536255,-67.19046000
132.51304626,-66.28738000
132.56072998,-61.86386000
132.60841370,-57.04177000
132.65609741,-54.92150000
132.70378113,-56.87743000
132.75146484,-52.71629000
132.79914856,-51.16148000
132.84683228,-57.41282000
132.89451599,-59.21193000
132.94219971,-64.06564000
132.98988342,-61.63056000
133.03756714,-58.42387000
133.08525085,-62.19174000
133.13293457,-54.01043000
133.18061829,-56.97743000
133.22830200,-52.17155000
133.27598572,-54.93930000
133.32366943,-56.02181000
133.37135315,-53.09917000
133.41903687,-54.67601000
133.46672058,-60.67174000
133.51440430,-62.76901000
133.56208801,-62.31004000
133.60977173,-65.29546000
133.65745544,-75.89482000
133.70513916,-66.88641000
133.75282288,-58.86795000
133.80050659,-55.55817000
133.84819031,-58.41987000
133.89587402,-71.71133000
133.94355774,-62.95589000
133.99124146,-58.09361000
134.03892517,-55.04427000
134.08660889,-56.12125000
134.13429260,-57.63006000
134.18197632,-62.68351000
134.22966003,-61.84861000
134.27734375,-56.69222000
134.32502747,-55.37659000
134.37271118,-55.43656000
134.42039490,-63.04520000
134.46807861,-51.60362000
134.51576233,-49.48737000
134.56344604,-51.85339000
134.61112976,-55.39455000
134.65881348,-55.90926000
134.70649719,-57.57410000
134.75418091,-65.05817000
134.80186462,-74.16498000
134.84954834,-62.36160000
134.89723206,-53.98075000
134.94491577,-53.05022000
134.99259949,-61.86626000
135.04028320,-56.73763000
135.08796692,-60.12663000
135.13565063,-64.81336000
135.18333435,-57.08197000
135.23101807,-58.18426000
135.27870178,-51.43259000
135.32638550,-47.97166000
135.37406921,-50.09160000
135.42175293,-62.14676000
135.46943665,-55.24487000
135.51712036,-78.51681000
135.56480408,-60.39135000
135.61248779,-60.49064000
135.66017151,-55.83206000
135.70785522,-56.90244000
135.75553894,-57.39283000
135.80322266,-54.05553000
135.85090637,-49.54586000
135.89859009,-49.01263000
135.94627380,-53.27734000
135.99395752,-58.52509000
136.04164124,-55.79779000
136.08932495,-86.45009000
136.13700867,-57.06446000
136.18469238,-55.78057000
136.23237610,-55.49155000
136.28005981,-55.78745000
136.32774353,-62.10947000
136.37542725,-54.87036000
136.42311096,-50.31843000
136.47079468,-52.84248000
136.51847839,-55.09062000
136.56616211,-58.12478000
136.61384583,-59.18093000
136.66152954,-59.06166000
136.70921326,-51.53284000
136.75689697,-50.71323000
136.80458069,-52.71791000
136.85226440,-50.32401000
136.89994812,-52.63170000
136.94763184,-55.53112000
136.99531555,-51.55230000
137.04299927,-59.71453000
137.09068298,-60.33778000
137.13836670,-59.32631000
137.18605042,-58.13043000
137.23373413,-54.73289000
137.28141785,-53.56702000
137.32910156,-57.50819000
137.37678528,-60.82973000
137.42446899,-60.26793000
137.47215271,-62.12996000
137.51983643,-70.18111000
137.56752014,-61.43349000
137.61520386,-58.66048000
137.66288757,-89.88138000
137.71057129,-60.18379000
137.75825500,-62.50162000
137.80593872,-59.51151000
137.85362244,-58.81558000
137.90130615,-59.14875000
137.94898987,-75.81010000
137.99667358,-56.55805000
138.04435730,-55.10707000
138.09204102,-61.32947000
138.13972473,-62.51507000
138.18740845,-61.10121000
138.23509216,-52.72461000
138.28277588,-51.08916000
138.33045959,-53.46865000
138.37814331,-55.97732000
138.42582703,-56.90752000
138.47351074,-50.72445000
138.52119446,-52.56271000
138.56887817,-69.33751000
138.61656189,-55.90560000
138.66424561,-55.67108000
138.71192932,-60.91190000
138.75961304,-58.11790000
138.80729675,-52.45415000
138.85498047,-52.72556000
138.90266418,-58.29145000
138.95034790,-62.25328000
138.99803162,-53.20452000
139.04571533,-46.41025000
139.09339905,-46.21774000
139.14108276,-53.06050000
139.18876648,-74.80060000
139.23645020,-61.53500000
139.28413391,-66.67151000
139.33181763,-60.00835000
139.37950134,-63.00599000
139.42718506,-63.32181000
139.47486877,-59.00995000
139.52255249,-59.87187000
139.57023621,-62.48064000
139.61791992,-63.94848000
139.66560364,-70.45358000
139.71328735,-55.74783000
139.76097107,-53.15625000
139.80865479,-57.33449000
139.85633850,-88.54102000
139.90402222,-63.91330000
139.95170593,-57.00991000
139.99938965,-50.89568000
140.04707336,-50.47602000
140.09475708,-54.53618000
140.14244080,-63.60802000
140.19012451,-53.82779000
140.23780823,-54.09729000
140.28549194,-56.43276000
140.33317566,-55.38514000
140.38085938,-55.07588000
140.42854309,-59.86693000
140.47622681,-67.66658000
140.52391052,-54.34616000
140.57159424,-53.75271000
140.61927795,-57.86964000
140.66696167,-59.46092000
140.71464539,-71.33181000
140.76232910,-54.56758000
140.81001282,-53.84181000
140.85769653,-60.11028000
140.90538025,-58.41957000
140.95306396,-54.93750000
141.00074768,-57.89999000
141.04843140,-61.69861000
141.09611511,-72.49949000
141.14379883,-59.45694000
141.19148254,-58.68741000
141.23916626,-65.47966000
141.28684998,-63.83282000
141.33453369,-54.52792000
141.38221741,-57.73891000
141.42990112,-75.83408000
141.47758484,-53.96019000
141.52526855,-49.39858000
141.57295227,-53.45655000
141.62063599,-62.92949000
141.66831970,-61.46352000
141.71600342,-66.57464000
141.76368713,-60.32041000
141.81137085,-63.37051000
141.85905457,-59.79101000
141.90673828,-55.00496000
141.95442200,-66.66653000
142.00210571,-55.68434000
142.04978943,-58.89002000
142.09747314,-64.71020000
142.14515686,-57.63533000
142.19284058,-62.73973000
142.24052429,-62.14550000
142.28820801,-60.45681000
142.33589172,-60.58858000
142.38357544,-58.47720000
142.43125916,-67.48772000
142.47894287,-56.42376000
142.52662659,-54.00186000
142.57431030,-56.34268000
142.62199402,-56.30235000
142.66967773,-56.79116000
142.71736145,-54.90676000
142.76504517,-60.59187000
142.81272888,-70.74488000
142.86041260,-65.02846000
142.90809631,-58.97963000
142.95578003,-61.28730000
143.00346375,-66.70945000
143.05114746,-57.69321000
143.09883118,-54.57484000
143.14651489,-62.89540000
143.19419861,-54.15562000
143.24188232,-51.17547000
143.28956604,-51.42648000
143.33724976,-50.84651000
143.38493347,-52.88841000
143.43261719,-55.67921000
143.48030090,-58.82293000
143.52798462,-57.75557000
143.57566833,-54.23611000
143.62335205,-65.51122000
143.67103577,-56.25809000
143.71871948,-53.25734000
143.76640320,-56.83293000
143.81408691,-62.65961000
143.86177063,-65.72044000
143.90945435,-65.52793000
143.95713806,-57.72432000
144.00482178,-55.42820000
144.05250549,-67.11595000
144.10018921,-59.36219000
144.14787292,-61.45456000
144.19555664,-56.53783000
144.24324036,-58.08396000
144.29092407,-64.74529000
144.33860779,-60.06080000
144.38629150,-59.31470000
144.43397522,-70.41949000
144.48165894,-59.89085000
144.52934265,-62.47464000
144.57702637,-55.82122000
144.62471008,-56.00406000
144.67239380,-53.98205000
144.72007751,-52.85606000
144.76776123,-53.63766000
144.81544495,-50.12272000
144.86312866,-52.25620000
144.91081238,-60.73721000
144.95849609,-57.73325000
145.00617981,-54.17327000
145.05386353,-54.02141000
145.10154724,-55.58109000
145.14923096,-60.47328000
145.19691467,-66.84657000
145.24459839,-61.70447000
145.29228210,-55.86237000
145.33996582,-54.99392000
145.38764954,-54.01976000
145.43533325,-50.89041000
145.48301697,-50.90375000
145.53070068,-52.06335000
145.57838440,-59.87927000
145.62606812,-60.70890000
145.67375183,-59.32494000
145.72143555,-58.24173000
145.76911926,-63.52198000
145.81680298,-58.38289000
145.86448669,-55.36286000
145.91217041,-69.82693000
145.95985413,-54.33017000
146.00753784,-51.40238000
146.05522156,-52.96615000
146.10290527,-57.99776000
146.15058899,-60.90273000
146.19827271,-59.52291000
146.24595642,-61.82052000
146.29364014,-65.83183000
146.34132385,-59.37584000
146.38900757,-52.43553000
146.43669128,-52.31689000
146.48437500,-56.24577000
146.53205872,-59.01036000
146.57974243,-55.43684000
146.62742615,-53.35011000
146.67510986,-55.83386000
146.72279358,-59.64428000
146.77047729,-61.28221000
146.81816101,-60.57326000
146.86584473,-59.29608000
146.91352844,-54.33086000
146.96121216,-51.99181000
147.00889587,-58.35967000
147.05657959,-61.79284000
147.10426331,-62.71033000
147.15194702,-64.35320000
147.19963074,-55.66578000
147.24731445,-52.45437000
147.29499817,-49.82480000
147.34268188,-49.42020000
147.39036560,-50.32438000
147.43804932,-52.82851000
147.48573303,-60.17960000
147.53341675,-60.93390000
147.58110046,-54.29884000
147.62878418,-50.78106000
147.67646790,-53.71601000
147.72415161,-53.03981000
147.77183533,-52.30353000
147.81951904,-60.33089000
147.86720276,-60.73077000
147.91488647,-64.32166000
147.96257019,-66.71231000
148.01025391,-68.06071000
148.05793762,-54.25480000
148.10562134,-50.12327000
148.15330505,-55.67950000
148.20098877,-57.45338000
148.24867249,-53.64096000
148.29635620,-59.21683000
148.34403992,-55.84383000
148.39172363,-52.08590000
148.43940735,-59.05843000
148.48709106,-58.95563000
148.53477478,-59.92039000
148.58245850,-71.82004000
148.63014221,-56.22887000
148.67782593,-52.03991000
148.72550964,-53.14491000
148.77319336,-57.68649000
148.82087708,-56.44142000
148.86856079,-55.62698000
148.91624451,-52.29679000
148.96392822,-51.67154000
149.01161194,-50.62996000
149.05929565,-52.52721000
149.10697937,-61.96315000
149.15466309,-64.78310000
149.20234680,-65.41293000
149.25003052,-56.74169000
149.29771423,-54.36624000
149.34539795,-55.75337000
149.39308167,-62.55821000
149.44076538,-59.11477000
149.48844910,-54.43725000
149.53613281,-51.10442000
149.58381653,-51.45359000
149.63150024,-52.22469000
149.67918396,-59.37540000
149.72686768,-61.52121000
149.77455139,-57.49248000
149.82223511,-58.29625000
149.86991882,-58.38622000
149.91760254,-58.07925000
149.96528625,-55.59874000
150.01296997,-58.57791000
150.06065369,-56.98805000
150.10833740,-49.34536000
150.15602112,-51.93410000
150.20370483,-74.66026000
150.25138855,-55.29188000
150.29907227,-54.76899000
150.34675598,-56.45268000
150.39443970,-71.04929000
150.44212341,-62.48963000
150.48980713,-65.71913000
150.53749084,-56.21896000
150.58517456,-53.18823000
150.63285828,-58.27774000
150.68054199,-58.29233000
150.72822571,-53.81205000
150.77590942,-55.80197000
150.82359314,-58.23013000
150.87127686,-57.65004000
150.91896057,-55.88474000
150.96664429,-57.23804000
151.01432800,-60.92329000
151.06201172,-58.29839000
151.10969543,-56.85316000
151.15737915,-55.74466000
151.20506287,-63.46877000
151.25274658,-58.23331000
151.30043030,-58.99022000
151.34811401,-68.44662000
151.39579773,-57.47189000
151.44348145,-53.00953000
151.49116516,-55.52147000
151.53884888,-57.81963000
151.58653259,-54.43217000
151.63421631,-52.50620000
151.68190002,-53.10374000
151.72958374,-56.17229000
151.77726746,-56.82340000
151.82495117,-59.32861000
151.87263489,-59.22361000
151.92031860,-75.16093000
151.96800232,-55.91341000
152.01568604,-53.84656000
152.06336975,-59.20171000
152.11105347,-62.54137000
152.15873718,-57.20913000
152.20642090,-55.50140000
152.25410461,-61.75740000
152.30178833,-62.22398000
152.34947205,-63.26021000
152.39715576,-61.72001000
152.44483948,-61.63075000
152.49252319,-68.22282000
152.54020691,-57.19351000
152.58789063,-55.03607000
152.63557434,-53.09129000
152.68325806,-56.57983000
152.73094177,-64.04770000
152.77862549,-60.62642000
152.82630920,-52.68201000
152.87399292,-48.64423000
152.92167664,-50.65498000
152.96936035,-58.22283000
153.01704407,-64.86929000
153.06472778,-61.10239000
153.11241150,-56.54622000
153.16009521,-55.89361000
153.20777893,-58.86183000
153.25546265,-63.41140000
153.30314636,-58.47468000
153.35083008,-51.98475000
153.39851379,-48.23338000
153.44619751,-48.35617000
153.49388123,-52.47976000
153.54156494,-54.23675000
153.58924866,-60.11944000
153.63693237,-62.93872000
153.68461609,-62.79461000
153.73229980,-67.85428000
153.77998352,-68.79468000
153.82766724,-66.17281000
153.87535095,-64.34631000
153.92303467,-54.76059000
153.97071838,-50.04484000
154.01840210,-53.34659000
154.06608582,-61.73212000
154.11376953,-60.38756000
154.16145325,-62.38581000
154.20913696,-56.55416000
154.25682068,-58.14024000
154.30450439,-63.68583000
154.35218811,-58.29968000
154.39987183,-55.63657000
154.44755554,-56.56111000
154.49523926,-64.02090000
154.54292297,-61.95856000
154.59060669,-55.15025000
154.63829041,-58.17048000
154.68597412,-58.16814000
154.73365784,-61.09250000
154.78134155,-60.48962000
154.82902527,-63.66125000
154.87670898,-57.36636000
154.92439270,-62.59195000
154.97207642,-52.15723000
155.01976013,-51.75323000
155.06744385,-54.68560000
155.11512756,-50.16816000
155.16281128,-50.94923000
155.21049500,-59.66724000
155.25817871,-66.04652000
155.30586243,-60.75267000
155.35354614,-60.70097000
155.40122986,-63.04208000
155.44891357,-62.42377000
155.49659729,-55.48543000
155.54428101,-52.55814000
155.59196472,-56.61920000
155.63964844,-66.54084000
155.68733215,-57.17432000
155.73501587,-55.04502000
155.78269958,-58.85784000
155.83038330,-53.58773000
155.87806702,-54.93366000
155.92575073,-56.06993000
155.97343445,-58.08882000
156.02111816,-58.46253000
156.06880188,-58.11673000
156.11648560,-53.63674000
156.16416931,-52.55096000
156.21185303,-63.75253000
156.25953674,-58.24217000
156.30722046,-57.60992000
156.35490417,-56.74968000
156.40258789,-55.39473000
156.45027161,-65.20065000
156.49795532,-58.09163000
156.54563904,-56.76051000
156.59332275,-59.62040000
156.64100647,-56.45657000
156.68869019,-50.80415000
156.73637390,-50.75360000
156.78405762,-59.71958000
156.83174133,-53.39550000
156.87942505,-52.29555000
156.92710876,-69.30940000
156.97479248,-57.75128000
157.02247620,-58.13462000
157.07015991,-54.73153000
157.11784363,-56.87318000
157.16552734,-67.03157000
157.21321106,-56.54241000
157.26089478,-57.54202000
157.30857849,-61.07962000
157.35626221,-61.05579000
157.40394592,-55.01316000
157.45162964,-54.45036000
157.49931335,-65.95654000
157.54699707,-60.85297000
157.59468079,-60.30840000
157.64236450,-58.77290000
157.69004822,-63.49888000
157.73773193,-70.46002000
157.78541565,-63.57620000
157.83309937,-59.05590000
157.88078308,-52.49445000
157.92846680,-52.35426000
157.97615051,-55.61609000
158.02383423,-63.19526000
158.07151794,-63.40132000
158.11920166,-60.50253000
158.16688538,-54.96508000
158.21456909,-54.32562000
158.26225281,-54.27024000
158.30993652,-60.39951000
158.35762024,-61.56552000
158.40530396,-55.40617000
158.45298767,-55.08062000
158.50067139,-59.75534000
158.54835510,-74.80582000
158.59603882,-63.73646000
158.64372253,-57.84523000
158.69140625,-60.44413000
158.73908997,-59.21566000
158.78677368,-55.51212000
158.83445740,-53.40951000
158.88214111,-53.91759000
158.92982483,-52.98759000
158.97750854,-52.46300000
159.02519226,-63.41671000
159.07287598,-53.82739000
159.12055969,-58.18056000
159.16824341,-59.32146000
159.21592712,-54.44231000
159.26361084,-55.35809000
159.31129456,-56.03084000
159.35897827,-49.84787000
159.40666199,-48.34424000
159.45434570,-48.28630000
159.50202942,-50.49831000
159.54971313,-57.37164000
159.59739685,-56.08028000
159.64508057,-64.18073000
159.69276428,-58.02285000
159.74044800,-56.69370000
159.78813171,-58.16441000
159.83581543,-53.35564000
159.88349915,-53.20277000
159.93118286,-64.95457000
159.97886658,-56.96605000
160.02655029,-51.48603000
160.07423401,-49.95583000
160.12191772,-54.98482000
160.16960144,-63.40733000
160.21728516,-62.64096000
160.26496887,-58.12326000
160.31265259,-50.53030000
160.36033630,-50.73582000
160.40802002,-56.41879000
160.45570374,-53.62235000
160.50338745,-53.17787000
160.55107117,-56.06030000
160.59875488,-52.48537000
160.64643860,-53.11765000
160.69412231,-57.65381000
160.74180603,-75.19551000
160.78948975,-60.48272000
160.83717346,-65.60802000
160.88485718,-56.17402000
160.93254089,-54.21624000
160.98022461,-56.39872000
161.02790833,-58.17979000
161.07559204,-57.99259000
161.12327576,-57.49820000
161.17095947,-62.82917000
161.21864319,-68.23299000
161.26632690,-66.47598000
161.31401062,-59.25945000
161.36169434,-56.47890000
161.40937805,-53.87225000
161.45706177,-49.55413000
161.50474548,-50.78619000
161.55242920,-60.19484000
161.60011292,-58.42866000
161.64779663,-61.11011000
161.69548035,-52.70441000
161.74316406,-51.56913000
161.79084778,-64.20803000
161.83853149,-60.59731000
161.88621521,-56.56628000
161.93389893,-55.16184000
161.98158264,-57.97572000
162.02926636,-56.81258000
162.07695007,-61.65504000
162.12463379,-57.42955000
162.17231750,-52.53965000
162.22000122,-54.12607000
162.26768494,-54.79491000
162.31536865,-52.43676000
162.36305237,-51.09129000
162.41073608,-52.28080000
162.45841980,-56.86211000
162.50610352,-56.00051000
162.55378723,-55.35582000
162.60147095,-57.12202000
162.64915466,-58.59140000
162.69683838,-54.00453000
162.74452209,-48.55225000
162.79220581,-50.89764000
162.83988953,-62.60430000
162.88757324,-59.28222000
162.93525696,-56.18974000
162.98294067,-50.19489000
163.03062439,-53.35949000
163.07830811,-63.47412000
163.12599182,-102.34750000
163.17367554,-61.91080000
163.22135925,-53.30515000
163.26904297,-50.39513000
163.31672668,-51.60307000
163.36441040,-55.79494000
163.41209412,-52.97636000
163.45977783,-48.72734000
163.50746155,-50.57280000
163.55514526,-57.72606000
163.60282898,-57.03955000
163.65051270,-60.92804000
163.69819641,-57.57182000
163.74588013,-51.48923000
163.79356384,-55.45716000
163.84124756,-60.97398000
163.88893127,-55.98401000
163.93661499,-55.25744000
163.98429871,-53.28413000
164.03198242,-54.85199000
164.07966614,-64.05685000
164.12734985,-58.23692000
164.17503357,-52.41110000
164.22271729,-50.42518000
164.27040100,-54.10554000
164.31808472,-55.79828000
164.36576843,-55.13455000
164.41345215,-58.98892000
164.46113586,-54.53426000
164.50881958,-52.13604000
164.55650330,-57.52166000
164.60418701,-68.98657000
164.65187073,-58.15174000
164.69955444,-56.54855000
164.74723816,-68.75961000
164.79492188,-71.14774000
164.84260559,-58.86521000
164.89028931,-60.25548000
164.93797302,-61.96548000
164.98565674,-55.39896000
165.03334045,-56.14867000
165.08102417,-61.33236000
165.12870789,-54.93424000
165.17639160,-54.81937000
165.22407532,-58.47305000
165.27175903,-87.20811000
165.31944275,-56.78256000
165.36712646,-52.83331000
165.41481018,-53.97316000
165.46249390,-63.06541000
165.51017761,-63.52301000
165.55786133,-63.75745000
165.60554504,-57.93957000
165.65322876,-52.99800000
165.70091248,-54.04016000
165.74859619,-55.12406000
165.79627991,-53.48407000
165.84396362,-50.36772000
165.89164734,-53.19931000
165.93933105,-61.82854000
165.98701477,-76.97758000
166.03469849,-58.28760000
166.08238220,-57.41383000
166.13006592,-60.81663000
166.17774963,-61.26851000
166.22543335,-50.75918000
166.27311707,-48.70486000
166.32080078,-52.23068000
166.36848450,-62.22910000
166.41616821,-57.99313000
166.46385193,-57.88567000
166.51153564,-55.81283000
166.55921936,-53.68119000
166.60690308,-54.61250000
166.65458679,-57.88769000
166.70227051,-57.14814000
166.74995422,-59.70844000
166.79763794,-58.20042000
166.84532166,-53.09179000
166.89300537,-55.07690000
166.94068909,-58.87863000
166.98837280,-54.07446000
167.03605652,-54.26534000
167.08374023,-57.66827000
167.13142395,-59.33408000
167.17910767,-64.52303000
167.22679138,-60.26593000
167.27447510,-57.50490000
167.32215881,-53.35516000
167.36984253,-55.82136000
167.41752625,-63.35343000
167.46520996,-56.94946000
167.51289368,-53.34249000
167.56057739,-60.68120000
167.60826111,-56.00023000
167.65594482,-60.05261000
167.70362854,-62.20773000
167.75131226,-59.41415000
167.79899597,-63.38380000
167.84667969,-54.54098000
167.89436340,-53.60807000
167.94204712,-60.67567000
167.98973083,-52.62634000
168.03741455,-53.30633000
168.08509827,-48.72531000
168.13278198,-51.82837000
168.18046570,-67.82405000
168.22814941,-67.38036000
168.27583313,-55.04886000
168.32351685,-50.80579000
168.37120056,-52.66607000
168.41888428,-61.50803000
168.46656799,-65.51080000
168.51425171,-59.28973000
168.56193542,-52.92464000
168.60961914,-53.05492000
168.65730286,-59.64144000
168.70498657,-73.28822000
168.75267029,-57.99783000
168.80035400,-59.02389000
168.84803772,-56.16817000
168.89572144,-52.70668000
168.94340515,-52.70978000
168.99108887,-57.86250000
169.03877258,-53.96656000
169.08645630,-53.48892000
169.13414001,-61.03674000
169.18182373,-61.00269000
169.22950745,-61.64539000
169.27719116,-69.73938000
169.32487488,-54.02756000
169.37255859,-54.74604000
169.42024231,-61.73598000
169.46792603,-51.71227000
169.51560974,-55.88847000
169.56329346,-56.54135000
169.61097717,-50.17548000
169.65866089,-51.03983000
169.70634460,-50.79533000
169.75402832,-49.91245000
169.80171204,-51.11993000
169.84939575,-55.82638000
169.89707947,-76.28030000
169.94476318,-60.30804000
169.99244690,-59.63054000
170.04013062,-64.29164000
170.08781433,-59.88504000
170.13549805,-55.47557000
170.18318176,-53.57401000
170.23086548,-51.63399000
170.27854919,-54.62808000
170.32623291,-59.23151000
170.37391663,-59.85256000
170.42160034,-61.45661000
170.46928406,-72.17933000
170.51696777,-60.63148000
170.56465149,-58.37597000
170.61233521,-60.27295000
170.66001892,-57.00625000
170.70770264,-53.15438000
170.75538635,-53.45551000
170.80307007,-54.90038000
170.85075378,-53.59337000
170.89843750,-56.24129000
170.94612122,-64.42403000
170.99380493,-54.77992000
171.04148865,-49.59999000
171.08917236,-51.64782000
171.13685608,-58.66680000
171.18453979,-65.73634000
171.23222351,-61.44813000
171.27990723,-53.34631000
171.32759094,-50.37826000
171.37527466,-50.04237000
171.42295837,-48.95847000
171.47064209,-49.62099000
171.51832581,-54.13885000
171.56600952,-72.07755000
171.61369324,-56.30161000
171.66137695,-61.42152000
171.70906067,-58.51826000
171.75674438,-55.76772000
171.80442810,-64.88644000
171.85211182,-53.60955000
171.89979553,-52.21417000
171.94747925,-51.19453000
171.99516296,-53.25241000
172.04284668,-59.25525000
172.09053040,-50.12644000
172.13821411,-50.14944000
172.18589783,-57.03392000
172.23358154,-64.65325000
172.28126526,-58.52765000
172.32894897,-82.83466000
172.37663269,-57.57934000
172.42431641,-61.36166000
172.47200012,-62.86503000
172.51968384,-79.80293000
172.56736755,-69.66142000
172.61505127,-64.33556000
172.66273499,-61.93307000
172.71041870,-56.56831000
172.75810242,-53.05361000
172.80578613,-54.78819000
172.85346985,-58.89060000
172.90115356,-59.95695000
172.94883728,-59.62219000
172.99652100,-55.94942000
173.04420471,-51.18163000
173.09188843,-53.68989000
173.13957214,-54.07983000
173.18725586,-57.20503000
173.23493958,-59.70231000
173.28262329,-57.46657000
173.33030701,-64.02988000
173.37799072,-58.08727000
173.42567444,-58.82739000
173.47335815,-56.04221000
173.52104187,-50.90307000
173.56872559,-53.49928000
173.61640930,-58.38067000
173.66409302,-51.52382000
173.71177673,-55.97103000
173.75946045,-63.68310000
173.80714417,-60.81216000
173.85482788,-64.29633000
173.90251160,-60.93465000
173.95019531,-55.14849000
173.99787903,-57.33122000
174.04556274,-54.47205000
174.09324646,-60.19478000
174.14093018,-65.59160000
174.18861389,-57.69230000
174.23629761,-53.17484000
174.28398132,-54.54994000
174.33166504,-58.19669000
174.37934875,-56.64536000
174.42703247,-60.41667000
174.47471619,-59.91077000
174.52239990,-57.52766000
174.57008362,-70.69421000
174.61776733,-64.80582000
174.66545105,-82.21473000
174.71313477,-70.81345000
174.76081848,-68.12449000
174.80850220,-60.81213000
174.85618591,-66.90216000
174.90386963,-57.32619000
174.95155334,-55.11795000
174.99923706,-58.67756000
175.04692078,-56.82483000
175.09460449,-52.07230000
175.14228821,-59.94958000
175.18997192,-53.09693000
175.23765564,-50.63038000
175.28533936,-48.67556000
175.33302307,-49.65694000
175.38070679,-55.91417000
175.42839050,-71.34507000
175.47607422,-59.16744000
175.52375793,-53.30861000
175.57144165,-54.70911000
175.61912537,-58.44627000
175.66680908,-66.33004000
175.71449280,-71.99458000
175.76217651,-74.97029000
175.80986023,-59.36029000
175.85754395,-58.12662000
175.90522766,-55.91621000
175.95291138,-51.30978000
176.00059509,-49.30046000
176.04827881,-53.00378000
176.09596252,-54.92717000
176.14364624,-54.11459000
176.19132996,-59.07421000
176.23901367,-58.93653000
176.28669739,-57.66808000
176.33438110,-59.04945000
176.38206482,-58.21918000
176.42974854,-63.20607000
176.47743225,-58.81853000
176.52511597,-53.57795000
176.57279968,-65.81771000
176.62048340,-51.98464000
176.66816711,-51.11122000
176.71585083,-62.06370000
176.76353455,-67.21679000
176.81121826,-60.51468000
176.85890198,-61.69357000
176.90658569,-56.09494000
176.95426941,-52.20959000
177.00195313,-52.80630000
177.04963684,-53.33093000
177.09732056,-57.71569000
177.14500427,-66.52295000
177.19268799,-60.34773000
177.24037170,-60.18479000
177.28805542,-54.31921000
177.33573914,-53.29229000
177.38342285,-57.81910000
177.43110657,-61.31183000
177.47879028,-55.54118000
177.52647400,-55.81016000
177.57415771,-62.22224000
177.62184143,-68.23041000
177.66952515,-57.46410000
177.71720886,-55.69769000
177.76489258,-55.28433000
177.81257629,-56.59562000
177.86026001,-57.71756000
177.90794373,-55.01320000
177.95562744,-59.87908000
178.00331116,-61.34492000
178.05099487,-53.72079000
178.09867859,-51.87196000
178.14636230,-53.63863000
178.19404602,-67.15453000
178.24172974,-57.39239000
178.28941345,-60.31678000
178.33709717,-61.46387000
178.38478088,-63.76757000
178.43246460,-57.64666000
178.48014832,-54.69489000
178.52783203,-64.61028000
178.57551575,-72.66909000
178.62319946,-63.19727000
178.67088318,-57.71934000
178.71856689,-58.50063000
178.76625061,-51.70291000
178.81393433,-50.03973000
178.86161804,-55.31654000
178.90930176,-64.36053000
178.95698547,-59.80027000
179.00466919,-60.91519000
179.05235291,-59.97291000
179.10003662,-54.45969000
179.14772034,-51.36993000
179.19540405,-51.38822000
179.24308777,-52.25573000
179.29077148,-54.21034000
179.33845520,-64.04110000
179.38613892,-63.61270000
179.43382263,-61.37550000
179.48150635,-57.88242000
179.52919006,-58.00274000
179.57687378,-52.54005000
179.62455750,-50.66798000
179.67224121,-52.58569000
179.71992493,-67.67956000
179.76760864,-58.57404000
179.81529236,-60.85352000
179.86297607,-63.31310000
179.91065979,-61.38020000
179.95834351,-61.64059000
180.00602722,-55.94794000
180.05371094,-53.04204000
180.10139465,-60.44648000
180.14907837,-67.32696000
180.19676208,-60.15099000
180.24444580,-57.55208000
180.29212952,-54.94848000
180.33981323,-54.34293000
180.38749695,-57.73776000
180.43518066,-61.87090000
180.48286438,-65.52564000
180.53054810,-66.08999000
180.57823181,-66.52912000
180.62591553,-62.43008000
180.67359924,-53.76081000
180.72128296,-55.78971000
180.76896667,-58.08865000
180.81665039,-69.76276000
180.86433411,-56.41264000
180.91201782,-57.64635000
180.95970154,-57.97798000
181.00738525,-50.77044000
181.05506897,-51.46178000
181.10275269,-57.62487000
181.15043640,-62.11406000
181.19812012,-65.38885000
181.24580383,-57.71137000
181.29348755,-52.29979000
181.34117126,-49.75123000
181.38885498,-49.21404000
181.43653870,-50.88998000
181.48422241,-53.24036000
181.53190613,-58.42457000
181.57958984,-62.11275000
181.62727356,-57.21708000
181.67495728,-59.23636000
181.72264099,-57.34834000
181.77032471,-53.90308000
181.81800842,-52.80788000
181.86569214,-56.83449000
181.91337585,-57.64607000
181.96105957,-54.52571000
182.00874329,-61.83992000
182.05642700,-55.05240000
182.10411072,-53.43454000
182.15179443,-53.53696000
182.19947815,-55.55157000
182.24716187,-63.46906000
182.29484558,-59.21204000
182.34252930,-57.35506000
182.39021301,-53.06425000
182.43789673,-50.63175000
182.48558044,-50.76509000
182.53326416,-52.76803000
182.58094788,-53.34140000
182.62863159,-50.16908000
182.67631531,-52.61367000
182.72399902,-53.96659000
182.77168274,-61.98971000
182.81936646,-65.09732000
182.86705017,-54.88440000
182.91473389,-52.40434000
182.96241760,-56.90710000
183.01010132,-54.84821000
183.05778503,-51.38176000
183.10546875,-52.47249000
183.15315247,-61.53613000
183.20083618,-56.59188000
183.24851990,-56.68561000
183.29620361,-66.32019000
183.34388733,-66.47309000
183.39157104,-55.66803000
183.43925476,-54.73037000
183.48693848,-58.00761000
183.53462219,-52.69523000
183.58230591,-55.38129000
183.62998962,-70.42724000
183.67767334,-63.75246000
183.72535706,-62.25225000
183.77304077,-68.76417000
183.82072449,-54.89729000
183.86840820,-47.56206000
183.91609192,-48.15162000
183.96377563,-57.56907000
184.01145935,-58.87429000
184.05914307,-55.13847000
184.10682678,-58.56224000
184.15451050,-65.80168000
184.20219421,-67.82594000
184.24987793,-58.86667000
184.29756165,-56.18248000
184.34524536,-59.80159000
184.39292908,-56.50664000
184.44061279,-59.11250000
184.48829651,-57.58186000
184.53598022,-64.91453000
184.58366394,-58.35025000
184.63134766,-67.64153000
184.67903137,-53.22915000
184.72671509,-57.91423000
184.77439880,-63.57971000
184.82208252,-71.01576000
184.86976624,-55.72187000
184.91744995,-51.14054000
184.96513367,-54.27995000
185.01281738,-65.91623000
185.06050110,-67.22432000
185.10818481,-55.12587000
185.15586853,-62.46312000
185.20355225,-55.51255000
185.25123596,-52.75323000
185.29891968,-55.66257000
185.34660339,-55.74826000
185.39428711,-67.58103000
185.44197083,-68.64746000
185.48965454,-54.75202000
185.53733826,-49.88334000
185.58502197,-51.13383000
185.63270569,-55.23608000
185.68038940,-52.25410000
185.72807312,-53.06969000
185.77575684,-51.05486000
185.82344055,-51.68507000
185.87112427,-52.20840000
185.91880798,-53.19897000
185.96649170,-64.22932000
186.01417542,-64.10574000
186.06185913,-65.16287000
186.10954285,-55.80744000
186.15722656,-57.11014000
186.20491028,-56.00356000
186.25259399,-55.44686000
186.30027771,-57.82380000
186.34796143,-61.57721000
186.39564514,-66.32039000
186.44332886,-63.84086000
186.49101257,-67.20918000
186.53869629,-58.59313000
186.58638000,-54.89682000
186.63406372,-55.76033000
186.68174744,-55.38563000
186.72943115,-56.11183000
186.77711487,-61.04945000
186.82479858,-65.30751000
186.87248230,-60.54651000
186.92016602,-59.33093000
186.96784973,-54.41508000
187.01553345,-53.54950000
187.06321716,-56.50344000
187.11090088,-55.52645000
187.15858459,-55.11830000
187.20626831,-60.06992000
187.25395203,-69.56107000
187.30163574,-58.19584000
187.34931946,-49.43056000
187.39700317,-46.70926000
187.44468689,-49.01504000
187.49237061,-62.01752000
187.54005432,-53.09390000
187.58773804,-53.21056000
187.63542175,-52.37171000
187.68310547,-65.70792000
187.73078918,-56.63039000
187.77847290,-56.85593000
187.82615662,-51.62465000
187.87384033,-51.11462000
187.92152405,-55.15609000
187.96920776,-58.26901000
188.01689148,-56.95304000
188.06457520,-53.86773000
188.11225891,-55.18011000
188.15994263,-64.86349000
188.20762634,-51.92807000
188.25531006,-54.97816000
188.30299377,-53.89137000
188.35067749,-58.63877000
188.39836121,-61.03605000
188.44604492,-52.96947000
188.49372864,-53.61301000
188.54141235,-52.64332000
188.58909607,-49.23713000
188.63677979,-50.04531000
188.68446350,-56.73598000
188.73214722,-66.49702000
188.77983093,-58.64988000
188.82751465,-61.66017000
188.87519836,-58.02832000
188.92288208,-64.19101000
188.97056580,-61.77796000
189.01824951,-62.55524000
189.06593323,-61.34136000
189.11361694,-69.22670000
189.16130066,-63.01999000
189.20898438,-58.04978000
189.25666809,-59.69371000
189.30435181,-55.26340000
189.35203552,-52.87529000
189.39971924,-53.23547000
189.44740295,-56.07251000
189.49508667,-62.02872000
189.54277039,-73.92086000
189.59045410,-55.88520000
189.63813782,-52.81694000
189.68582153,-51.96529000
189.73350525,-53.18930000
189.78118896,-59.11150000
189.82887268,-71.49428000
189.87655640,-61.01438000
189.92424011,-58.95440000
189.97192383,-57.71865000
190.01960754,-55.80387000
190.06729126,-54.32482000
190.11497498,-61.43447000
190.16265869,-59.59768000
190.21034241,-57.52346000
190.25802612,-58.40057000
190.30570984,-58.84868000
190.35339355,-56.75385000
190.40107727,-57.63308000
190.44876099,-64.95567000
190.49644470,-57.94605000
190.54412842,-52.46843000
190.59181213,-52.19582000
190.63949585,-53.49419000
190.68717957,-49.92066000
190.73486328,-51.27236000
190.78254700,-55.30467000
190.83023071,-55.20868000
190.87791443,-57.66026000
190.92559814,-51.78597000
190.97328186,-54.87627000
191.02096558,-59.26743000
191.06864929,-54.65908000
191.11633301,-55.10643000
191.16401672,-57.00744000
191.21170044,-65.65423000
191.25938416,-55.97067000
191.30706787,-57.60164000
191.35475159,-59.09343000
191.40243530,-60.69823000
191.45011902,-62.16873000
191.49780273,-51.88792000
191.54548645,-49.89503000
191.59317017,-48.75174000
191.64085388,-48.83105000
191.68853760,-52.81676000
191.73622131,-72.91657000
191.78390503,-64.41003000
191.83158875,-62.26084000
191.87927246,-55.57228000
191.92695618,-65.09178000
191.97463989,-57.35382000
192.02232361,-52.16283000
192.07000732,-51.47352000
192.11769104,-55.84974000
192.16537476,-64.67341000
192.21305847,-62.45026000
192.26074219,-52.85265000
192.30842590,-48.37140000
192.35610962,-49.24557000
192.40379333,-53.51048000
192.45147705,-55.66345000
192.49916077,-56.31238000
192.54684448,-58.33736000
192.59452820,-62.76177000
192.64221191,-61.77802000
192.68989563,-73.32346000
192.73757935,-58.67489000
192.78526306,-56.64591000
192.83294678,-62.57753000
192.88063049,-66.33366000
192.92831421,-59.52656000
192.97599792,-54.85767000
193.02368164,-56.69885000
193.07136536,-67.62939000
193.11904907,-62.53020000
193.16673279,-58.90628000
193.21441650,-57.16416000
193.26210022,-57.72361000
193.30978394,-67.03599000
193.35746765,-58.32169000
193.40515137,-58.57851000
193.45283508,-59.44056000
193.50051880,-70.80202000
193.54820251,-58.74950000
193.59588623,-66.41774000
193.64356995,-54.27964000
193.69125366,-49.22123000
193.73893738,-50.56168000
193.78662109,-57.23144000
193.83430481,-56.68488000
193.88198853,-63.71552000
193.92967224,-54.33839000
193.97735596,-51.41043000
194.02503967,-52.09517000
194.07272339,-52.75559000
194.12040710,-56.71877000
194.16809082,-54.58258000
194.21577454,-53.23304000
194.26345825,-52.93263000
194.31114197,-60.11982000
194.35882568,-54.51255000
194.40650940,-50.40548000
194.45419312,-52.93764000
194.50187683,-51.53925000
194.54956055,-50.00750000
194.59724426,-56.38206000
194.64492798,-63.94645000
194.69261169,-61.87748000
194.74029541,-51.20665000
194.78797913,-49.63335000
194.83566284,-53.16361000
194.88334656,-59.41459000
194.93103027,-59.98714000
194.97871399,-58.56532000
195.02639771,-60.79302000
195.07408142,-58.10458000
195.12176514,-59.65520000
195.16944885,-57.85545000
195.21713257,-53.02754000
195.26481628,-54.15838000
