Frequency,Channel B
(kHz),(dBu)

0.00000000,-27.53728000
0.04768372,-34.88921000
0.09536743,-58.25256000
0.14305115,-46.59666000
0.19073486,-47.14854000
0.23841858,-48.82825000
0.28610229,-62.27276000
0.33378601,-54.49977000
0.38146973,-57.90818000
0.42915344,-53.85175000
0.47683716,-53.44154000
0.52452087,-55.14035000
0.57220459,-59.39933000
0.61988831,-56.00238000
0.66757202,-71.52447000
0.71525574,-57.39132000
0.76293945,-64.15891000
0.81062317,-57.22887000
0.85830688,-51.50893000
0.90599060,-55.40123000
0.95367432,-59.14700000
1.00135803,-56.63563000
1.04904175,-59.88119000
1.09672546,-66.29843000
1.14440918,-57.18046000
1.19209290,-54.11662000
1.23977661,-54.38173000
1.28746033,-59.64371000
1.33514404,-74.94390000
1.38282776,-71.71502000
1.43051147,-61.49433000
1.47819519,-54.85938000
1.52587891,-53.50669000
1.57356262,-72.76501000
1.62124634,-53.27135000
1.66893005,-51.91397000
1.71661377,-55.88143000
1.76429749,-59.13113000
1.81198120,-61.62469000
1.85966492,-66.38286000
1.90734863,-57.17746000
1.95503235,-54.58274000
2.00271606,-51.48372000
2.05039978,-50.92868000
2.09808350,-51.31078000
2.14576721,-55.03879000
2.19345093,-58.05412000
2.24113464,-62.84494000
2.28881836,-57.33826000
2.33650208,-55.70648000
2.38418579,-62.95215000
2.43186951,-54.75385000
2.47955322,-58.73327000
2.52723694,-54.45235000
2.57492065,-52.74584000
2.62260437,-53.75485000
2.67028809,-55.26880000
2.71797180,-54.21927000
2.76565552,-54.87794000
2.81333923,-54.06900000
2.86102295,-48.72877000
2.90870667,-49.82505000
2.95639038,-54.51836000
3.00407410,-52.34850000
3.05175781,-51.52155000
3.09944153,-71.27711000
3.14712524,-65.19528000
3.19480896,-57.93217000
3.24249268,-60.02568000
3.29017639,-56.69483000
3.33786011,-60.00042000
3.38554382,-57.78948000
3.43322754,-57.73495000
3.48091125,-68.84812000
3.52859497,-61.62693000
3.57627869,-59.63558000
3.62396240,-71.96011000
3.67164612,-58.12479000
3.71932983,-57.83661000
3.76701355,-63.15318000
3.81469727,-54.38020000
3.86238098,-66.24142000
3.91006470,-57.79980000
3.95774841,-59.05805000
4.00543213,-55.57130000
4.05311584,-69.77165000
4.10079956,-69.42241000
4.14848328,-53.54391000
4.19616699,-52.18828000
4.24385071,-62.07439000
4.29153442,-55.43126000
4.33921814,-56.69222000
4.38690186,-61.45005000
4.43458557,-53.81406000
4.48226929,-54.27565000
4.52995300,-48.90211000
4.57763672,-66.10066000
4.62532043,-50.26032000
4.67300415,-65.74028000
4.72068787,-52.85816000
4.76837158,-58.61069000
4.81605530,-59.87529000
4.86373901,-53.60979000
4.91142273,-56.43188000
4.95910645,-54.28331000
5.00679016,-52.33973000
5.05447388,-53.38467000
5.10215759,-47.84008000
5.14984131,-56.63599000
5.19752502,-49.93222000
5.24520874,-54.26468000
5.29289246,-53.64911000
5.34057617,-52.41814000
5.38825989,-49.26466000
5.43594360,-47.79263000
5.48362732,-53.45729000
5.53131104,-47.89321000
5.57899475,-46.84853000
5.62667847,-53.40407000
5.67436218,-45.63380000
5.72204590,-53.29528000
5.76972961,-43.01651000
5.81741333,-44.18533000
5.86509705,-48.29883000
5.91278076,-44.67041000
5.96046448,-45.79131000
6.00814819,-41.10126000
6.05583191,-42.40422000
6.10351563,-41.59819000
6.15119934,-38.14967000
6.19888306,-41.84604000
6.24656677,-37.28242000
6.29425049,-37.31488000
6.34193420,-34.96895000
6.38961792,-32.86983000
6.43730164,-30.93106000
6.48498535,-27.37296000
6.53266907,-20.84704000
6.58035278,-12.05483000
6.62803650,-6.04687300
6.67572021,-4.77560300
6.72340393,-8.77542300
6.77108765,-16.37780000
6.81877136,-24.81093000
6.86645508,-27.65678000
6.91413879,-30.61225000
6.96182251,-30.81147000
7.00950623,-34.16476000
7.05718994,-32.80900000
7.10487366,-35.32386000
7.15255737,-34.57132000
7.20024109,-35.31561000
7.24792480,-36.80153000
7.29560852,-35.43542000
7.34329224,-36.89140000
7.39097595,-37.64983000
7.43865967,-35.87044000
7.48634338,-37.28828000
7.53402710,-36.55058000
7.58171082,-36.32167000
7.62939453,-38.09181000
7.67707825,-35.55154000
7.72476196,-36.92975000
7.77244568,-35.36763000
7.82012939,-37.19359000
7.86781311,-34.53938000
7.91549683,-34.31856000
7.96318054,-34.60379000
8.01086426,-32.96063000
8.05854797,-32.17127000
8.10623169,-30.56540000
8.15391541,-28.93049000
8.20159912,-26.10381000
8.24928284,-22.32383000
8.29696655,-17.83819000
8.34465027,-14.56024000
8.39233398,-13.66145000
8.44001770,-15.59836000
8.48770142,-19.96848000
8.53538513,-24.90357000
8.58306885,-28.62212000
8.63075256,-31.76642000
8.67843628,-33.69416000
8.72612000,-35.36018000
8.77380371,-37.79080000
8.82148743,-37.87616000
8.86917114,-39.45154000
8.91685486,-42.11764000
8.96453857,-40.69746000
9.01222229,-42.08772000
9.05990601,-43.70817000
9.10758972,-47.10548000
9.15527344,-42.60360000
9.20295715,-47.29044000
9.25064087,-45.09850000
9.29832458,-47.57123000
9.34600830,-51.96850000
9.39369202,-45.74634000
9.44137573,-50.54381000
9.48905945,-48.67736000
9.53674316,-48.45697000
9.58442688,-49.36757000
9.63211060,-51.45435000
9.67979431,-51.45993000
9.72747803,-50.62996000
9.77516174,-50.44943000
9.82284546,-56.70665000
9.87052917,-50.26991000
9.91821289,-52.47967000
9.96589661,-55.12156000
10.01358032,-54.22495000
10.06126404,-49.66422000
10.10894775,-56.81829000
10.15663147,-60.85858000
10.20431519,-53.29227000
10.25199890,-55.49789000
10.29968262,-62.84259000
10.34736633,-51.69512000
10.39505005,-49.44632000
10.44273376,-55.50861000
10.49041748,-48.51215000
10.53810120,-55.83318000
10.58578491,-55.72822000
10.63346863,-57.67274000
10.68115234,-61.44532000
10.72883606,-52.21638000
10.77651978,-55.52906000
10.82420349,-55.45582000
10.87188721,-56.08717000
10.91957092,-68.99925000
10.96725464,-54.72894000
11.01493835,-53.84473000
11.06262207,-69.12672000
11.11030579,-52.06020000
11.15798950,-53.43898000
11.20567322,-63.15312000
11.25335693,-73.92742000
11.30104065,-53.23183000
11.34872437,-58.03632000
11.39640808,-70.88251000
11.44409180,-56.20264000
11.49177551,-50.28053000
11.53945923,-50.14713000
11.58714294,-50.64801000
11.63482666,-65.25845000
11.68251038,-66.90421000
11.73019409,-55.80950000
11.77787781,-57.58659000
11.82556152,-51.46845000
11.87324524,-53.52789000
11.92092896,-58.03166000
11.96861267,-62.00402000
12.01629639,-50.75898000
12.06398010,-52.58196000
12.11166382,-53.49294000
12.15934753,-51.52988000
12.20703125,-52.06754000
12.25471497,-53.48624000
12.30239868,-56.68703000
12.35008240,-57.31831000
12.39776611,-65.14363000
12.44544983,-60.62565000
12.49313354,-59.22069000
12.54081726,-58.33711000
12.58850098,-57.89578000
12.63618469,-68.83376000
12.68386841,-52.05998000
12.73155212,-52.55717000
12.77923584,-55.01378000
12.82691956,-59.83413000
12.87460327,-56.75034000
12.92228699,-56.28815000
12.96997070,-61.13335000
13.01765442,-52.81588000
13.06533813,-54.85833000
13.11302185,-60.78123000
13.16070557,-51.30785000
13.20838928,-47.00373000
13.25607300,-49.22909000
13.30375671,-47.64507000
13.35144043,-49.39020000
13.39912415,-46.55691000
13.44680786,-47.28426000
13.49449158,-50.79366000
13.54217529,-55.50214000
13.58985901,-56.21416000
13.63754272,-63.56396000
13.68522644,-50.32205000
13.73291016,-51.10380000
13.78059387,-54.14816000
13.82827759,-72.48621000
13.87596130,-59.71993000
13.92364502,-53.17454000
13.97132874,-60.21802000
14.01901245,-58.82233000
14.06669617,-56.15005000
14.11437988,-58.28319000
14.16206360,-57.32289000
14.20974731,-54.65158000
14.25743103,-54.31532000
14.30511475,-51.66857000
14.35279846,-56.61049000
14.40048218,-68.40190000
14.44816589,-55.51131000
14.49584961,-54.82766000
14.54353333,-61.19440000
14.59121704,-52.81929000
14.63890076,-52.50563000
14.68658447,-55.96117000
14.73426819,-56.52929000
14.78195190,-57.77098000
14.82963562,-60.72761000
14.87731934,-54.06708000
14.92500305,-52.33115000
14.97268677,-57.79053000
15.02037048,-61.91755000
15.06805420,-56.44964000
15.11573792,-57.58038000
15.16342163,-61.47005000
15.21110535,-64.85986000
15.25878906,-54.88152000
15.30647278,-54.93681000
15.35415649,-53.94798000
15.40184021,-55.93823000
15.44952393,-57.15125000
15.49720764,-54.86072000
15.54489136,-56.26272000
15.59257507,-54.81643000
15.64025879,-48.96493000
15.68794250,-49.10825000
15.73562622,-57.08285000
15.78330994,-68.14496000
15.83099365,-54.45324000
15.87867737,-55.33045000
15.92636108,-56.49532000
15.97404480,-56.22595000
16.02172852,-56.58307000
16.06941223,-63.38576000
16.11709595,-56.99150000
16.16477966,-55.65288000
16.21246338,-54.01341000
16.26014709,-55.96197000
16.30783081,-66.03046000
16.35551453,-63.90170000
16.40319824,-63.51163000
16.45088196,-60.70105000
16.49856567,-58.85262000
16.54624939,-59.43246000
16.59393311,-60.98705000
16.64161682,-50.80217000
16.68930054,-56.01502000
16.73698425,-65.64347000
16.78466797,-59.40879000
16.83235168,-62.83129000
16.88003540,-59.21759000
16.92771912,-58.23845000
16.97540283,-57.06234000
17.02308655,-65.11224000
17.07077026,-56.77420000
17.11845398,-51.34266000
17.16613770,-52.82391000
17.21382141,-48.68517000
17.26150513,-50.13651000
17.30918884,-52.83137000
17.35687256,-53.81316000
17.40455627,-55.40485000
17.45223999,-58.50521000
17.49992371,-56.08146000
17.54760742,-56.33422000
17.59529114,-54.75820000
17.64297485,-51.60666000
17.69065857,-56.09203000
17.73834229,-65.36090000
17.78602600,-62.74879000
17.83370972,-56.53791000
17.88139343,-56.77490000
17.92907715,-60.88729000
17.97676086,-51.16389000
18.02444458,-51.60030000
18.07212830,-55.13639000
18.11981201,-53.35109000
18.16749573,-53.82160000
18.21517944,-55.25683000
18.26286316,-53.41126000
18.31054688,-53.31841000
18.35823059,-56.55970000
18.40591431,-56.96857000
18.45359802,-56.21761000
18.50128174,-53.76995000
18.54896545,-54.19695000
18.59664917,-66.02637000
18.64433289,-70.63078000
18.69201660,-64.10277000
18.73970032,-57.37804000
18.78738403,-56.28993000
18.83506775,-55.66623000
18.88275146,-55.24334000
18.93043518,-52.13884000
18.97811890,-51.86001000
19.02580261,-56.26532000
19.07348633,-53.19895000
19.12117004,-49.56213000
19.16885376,-51.89011000
19.21653748,-52.06106000
19.26422119,-53.36982000
19.31190491,-56.25169000
19.35958862,-55.85610000
19.40727234,-58.29918000
19.45495605,-61.75406000
19.50263977,-60.41672000
19.55032349,-60.58312000
19.59800720,-59.05596000
19.64569092,-51.32248000
19.69337463,-48.12836000
19.74105835,-47.57717000
19.78874207,-49.19828000
19.83642578,-50.91898000
19.88410950,-49.01524000
19.93179321,-47.12724000
19.97947693,-46.69277000
20.02716064,-45.25709000
20.07484436,-44.01779000
20.12252808,-45.06134000
20.17021179,-48.11065000
20.21789551,-48.90394000
20.26557922,-48.43932000
20.31326294,-47.70952000
20.36094666,-50.91402000
20.40863037,-81.40739000
20.45631409,-55.85821000
20.50399780,-58.40677000
20.55168152,-56.14216000
20.59936523,-56.97075000
20.64704895,-58.53706000
20.69473267,-65.25597000
20.74241638,-84.92683000
20.79010010,-60.27779000
20.83778381,-52.45302000
20.88546753,-50.01681000
20.93315125,-54.33640000
20.98083496,-57.94468000
21.02851868,-52.82706000
21.07620239,-52.85759000
21.12388611,-52.58772000
21.17156982,-52.87243000
21.21925354,-54.70658000
21.26693726,-53.11418000
21.31462097,-54.29224000
21.36230469,-53.95054000
21.40998840,-52.38537000
21.45767212,-55.94244000
21.50535583,-59.44423000
21.55303955,-58.27903000
21.60072327,-61.81979000
21.64840698,-59.67014000
21.69609070,-55.01020000
21.74377441,-53.17551000
21.79145813,-55.93222000
21.83914185,-64.26297000
21.88682556,-62.50512000
21.93450928,-55.27796000
21.98219299,-54.89943000
22.02987671,-65.99004000
22.07756042,-55.89546000
22.12524414,-50.74465000
22.17292786,-52.01760000
22.22061157,-53.29924000
22.26829529,-57.39114000
22.31597900,-52.47295000
22.36366272,-52.32073000
22.41134644,-59.88787000
22.45903015,-58.20347000
22.50671387,-54.04089000
22.55439758,-59.19818000
22.60208130,-63.33427000
22.64976501,-56.54941000
22.69744873,-54.33911000
22.74513245,-61.18945000
22.79281616,-53.43632000
22.84049988,-61.47423000
22.88818359,-66.10396000
22.93586731,-65.50991000
22.98355103,-60.44812000
23.03123474,-63.91321000
23.07891846,-63.22990000
23.12660217,-54.98426000
23.17428589,-63.66178000
23.22196960,-56.35107000
23.26965332,-52.58648000
23.31733704,-53.72104000
23.36502075,-54.65489000
23.41270447,-58.79758000
23.46038818,-67.49754000
23.50807190,-56.83332000
23.55575562,-54.86383000
23.60343933,-62.26744000
23.65112305,-69.66736000
23.69880676,-67.68399000
23.74649048,-57.30339000
23.79417419,-51.42456000
23.84185791,-51.50636000
23.88954163,-56.11985000
23.93722534,-63.48231000
23.98490906,-60.19952000
24.03259277,-55.26317000
24.08027649,-59.97341000
24.12796021,-68.20573000
24.17564392,-62.54905000
24.22332764,-56.82736000
24.27101135,-51.73945000
24.31869507,-52.76151000
24.36637878,-56.04958000
24.41406250,-56.08968000
24.46174622,-60.24243000
24.50942993,-61.29493000
24.55711365,-55.78756000
24.60479736,-57.82519000
24.65248108,-67.30607000
24.70016479,-58.94627000
24.74784851,-62.56539000
24.79553223,-75.10252000
24.84321594,-64.99255000
24.89089966,-54.40091000
24.93858337,-55.26503000
24.98626709,-66.52055000
25.03395081,-63.41241000
25.08163452,-64.17252000
25.12931824,-54.66019000
25.17700195,-58.69118000
25.22468567,-62.27872000
25.27236938,-57.25008000
25.32005310,-57.80279000
25.36773682,-59.53694000
25.41542053,-55.62566000
25.46310425,-55.91383000
25.51078796,-50.75789000
25.55847168,-50.44073000
25.60615540,-55.54278000
25.65383911,-68.22627000
25.70152283,-61.91918000
25.74920654,-61.97577000
25.79689026,-69.73816000
25.84457397,-71.11349000
25.89225769,-70.08961000
25.93994141,-76.66990000
25.98762512,-66.66802000
26.03530884,-59.28593000
26.08299255,-49.68204000
26.13067627,-47.86457000
26.17835999,-53.59119000
26.22604370,-55.55956000
26.27372742,-53.17823000
26.32141113,-52.10142000
26.36909485,-55.73080000
26.41677856,-65.05151000
26.46446228,-59.36781000
26.51214600,-52.75263000
26.55982971,-48.53200000
26.60751343,-48.04550000
26.65519714,-52.76942000
26.70288086,-58.98285000
26.75056458,-53.55236000
26.79824829,-55.42775000
26.84593201,-60.11412000
26.89361572,-59.06122000
26.94129944,-61.57724000
26.98898315,-58.22668000
27.03666687,-51.85038000
27.08435059,-53.71824000
27.13203430,-58.08088000
27.17971802,-61.19002000
27.22740173,-68.33752000
27.27508545,-63.67122000
27.32276917,-59.80397000
27.37045288,-52.34505000
27.41813660,-50.72346000
27.46582031,-52.87353000
27.51350403,-61.36486000
27.56118774,-52.37748000
27.60887146,-51.19376000
27.65655518,-54.77012000
27.70423889,-57.70058000
27.75192261,-72.58429000
27.79960632,-53.64706000
27.84729004,-49.21864000
27.89497375,-49.37286000
27.94265747,-50.24437000
27.99034119,-51.54347000
28.03802490,-55.47092000
28.08570862,-58.99372000
28.13339233,-59.19274000
28.18107605,-65.48618000
28.22875977,-55.57392000
28.27644348,-52.88762000
28.32412720,-55.74337000
28.37181091,-73.90540000
28.41949463,-55.69780000
28.46717834,-53.87162000
28.51486206,-55.62362000
28.56254578,-53.41855000
28.61022949,-51.85288000
28.65791321,-49.50937000
28.70559692,-52.12985000
28.75328064,-66.32074000
28.80096436,-56.36933000
28.84864807,-57.66863000
28.89633179,-58.21861000
28.94401550,-55.98542000
28.99169922,-52.11610000
29.03938293,-51.55497000
29.08706665,-53.61582000
29.13475037,-68.23096000
29.18243408,-63.21415000
29.23011780,-54.72912000
29.27780151,-49.84127000
29.32548523,-52.82415000
29.37316895,-59.85905000
29.42085266,-65.33734000
29.46853638,-59.41110000
29.51622009,-58.20398000
29.56390381,-65.28537000
29.61158752,-56.70560000
29.65927124,-67.31864000
29.70695496,-56.03296000
29.75463867,-71.19839000
29.80232239,-54.03016000
29.85000610,-53.97112000
29.89768982,-58.85684000
29.94537354,-63.69007000
29.99305725,-60.22652000
30.04074097,-55.85402000
30.08842468,-56.65689000
30.13610840,-60.31401000
30.18379211,-57.09829000
30.23147583,-51.32484000
30.27915955,-51.04900000
30.32684326,-62.12188000
30.37452698,-62.37381000
30.42221069,-61.51181000
30.46989441,-64.72594000
30.51757813,-67.18449000
30.56526184,-55.04686000
30.61294556,-54.60290000
30.66062927,-59.61739000
30.70831299,-67.25456000
30.75599670,-57.90984000
30.80368042,-64.01315000
30.85136414,-67.70052000
30.89904785,-62.62077000
30.94673157,-63.15874000
30.99441528,-57.36015000
31.04209900,-57.49691000
31.08978271,-64.83633000
31.13746643,-55.53859000
31.18515015,-53.68263000
31.23283386,-58.06590000
31.28051758,-63.11234000
31.32820129,-54.12208000
31.37588501,-51.70383000
31.42356873,-50.76265000
31.47125244,-52.09731000
31.51893616,-60.09533000
31.56661987,-60.42565000
31.61430359,-58.61733000
31.66198730,-59.12894000
31.70967102,-62.11250000
31.75735474,-53.90310000
31.80503845,-51.44705000
31.85272217,-54.09069000
31.90040588,-61.76083000
31.94808960,-67.56125000
31.99577332,-62.72091000
32.04345703,-59.28573000
32.09114075,-57.55064000
32.13882446,-60.26902000
32.18650818,-63.54167000
32.23419189,-61.16531000
32.28187561,-63.41121000
32.32955933,-62.89502000
32.37724304,-68.31301000
32.42492676,-58.55733000
32.47261047,-52.30012000
32.52029419,-52.11962000
32.56797791,-56.70019000
32.61566162,-58.40152000
32.66334534,-54.69778000
32.71102905,-54.20082000
32.75871277,-57.35230000
32.80639648,-65.72511000
32.85408020,-61.32523000
32.90176392,-58.70449000
32.94944763,-63.81998000
32.99713135,-57.80916000
33.04481506,-55.11487000
33.09249878,-57.93759000
33.14018250,-55.88633000
33.18786621,-52.17308000
33.23554993,-51.99979000
33.28323364,-50.07427000
33.33091736,-45.51588000
33.37860107,-46.01361000
33.42628479,-49.55058000
33.47396851,-51.49143000
33.52165222,-55.52801000
33.56933594,-66.81747000
33.61701965,-55.95205000
33.66470337,-50.76149000
33.71238708,-49.20099000
33.76007080,-49.65050000
33.80775452,-49.14454000
33.85543823,-50.34652000
33.90312195,-55.20822000
33.95080566,-55.37798000
33.99848938,-52.82906000
34.04617310,-54.51931000
34.09385681,-58.46815000
34.14154053,-52.63964000
34.18922424,-48.83565000
34.23690796,-50.10238000
34.28459167,-51.56375000
34.33227539,-54.42530000
34.37995911,-62.39554000
34.42764282,-55.91759000
34.47532654,-56.50510000
34.52301025,-57.26434000
34.57069397,-59.25708000
34.61837769,-58.27815000
34.66606140,-55.11478000
34.71374512,-55.25617000
34.76142883,-51.97885000
34.80911255,-52.66001000
34.85679626,-70.49981000
34.90447998,-53.76433000
34.95216370,-50.57066000
34.99984741,-52.15034000
35.04753113,-55.96144000
35.09521484,-55.98864000
35.14289856,-57.37594000
35.19058228,-57.61559000
35.23826599,-52.65385000
35.28594971,-51.24629000
35.33363342,-53.60713000
35.38131714,-60.98503000
35.42900085,-59.20164000
35.47668457,-53.42667000
35.52436829,-56.58937000
35.57205200,-78.98667000
35.61973572,-64.00603000
35.66741943,-63.03490000
35.71510315,-53.65163000
35.76278687,-51.72615000
35.81047058,-51.97184000
35.85815430,-55.48664000
35.90583801,-61.11866000
35.95352173,-58.45500000
36.00120544,-55.78997000
36.04888916,-53.10217000
36.09657288,-52.64098000
36.14425659,-53.43100000
36.19194031,-57.72874000
36.23962402,-59.13756000
36.28730774,-57.18391000
36.33499146,-58.64943000
36.38267517,-64.64490000
36.43035889,-56.16392000
36.47804260,-56.31643000
36.52572632,-63.35749000
36.57341003,-59.32966000
36.62109375,-53.95881000
36.66877747,-54.31870000
36.71646118,-59.40449000
36.76414490,-78.57830000
36.81182861,-56.46132000
36.85951233,-55.39184000
36.90719604,-55.55977000
36.95487976,-50.36075000
37.00256348,-51.37542000
37.05024719,-58.95864000
37.09793091,-59.25826000
37.14561462,-53.40315000
37.19329834,-56.55387000
37.24098206,-52.75706000
37.28866577,-53.36849000
37.33634949,-55.60047000
37.38403320,-55.60294000
37.43171692,-58.87961000
37.47940063,-60.63825000
37.52708435,-56.54661000
37.57476807,-53.41412000
37.62245178,-55.36516000
37.67013550,-56.09589000
37.71781921,-60.19953000
37.76550293,-56.42177000
37.81318665,-49.84420000
37.86087036,-50.79150000
37.90855408,-66.72162000
37.95623779,-53.33895000
38.00392151,-55.10824000
38.05160522,-59.00334000
38.09928894,-54.53864000
38.14697266,-55.93465000
38.19465637,-61.93761000
38.24234009,-61.08179000
38.29002380,-53.29523000
38.33770752,-51.79959000
38.38539124,-58.38675000
38.43307495,-59.44738000
38.48075867,-54.11213000
38.52844238,-51.10418000
38.57612610,-49.56749000
38.62380981,-51.17722000
38.67149353,-52.41758000
38.71917725,-51.52520000
38.76686096,-53.01098000
38.81454468,-57.29980000
38.86222839,-67.04346000
38.90991211,-55.98308000
38.95759583,-65.17245000
39.00527954,-64.04906000
39.05296326,-58.52051000
39.10064697,-54.97718000
39.14833069,-51.84166000
39.19601440,-51.24466000
39.24369812,-52.58052000
39.29138184,-53.91386000
39.33906555,-55.85552000
39.38674927,-60.57867000
39.43443298,-58.54027000
39.48211670,-53.94047000
39.52980042,-54.43039000
39.57748413,-58.82587000
39.62516785,-58.68868000
39.67285156,-56.10687000
39.72053528,-55.15887000
39.76821899,-53.99483000
39.81590271,-55.45113000
39.86358643,-58.70193000
39.91127014,-56.46289000
39.95895386,-56.66908000
40.00663757,-51.52329000
40.05432129,-49.57815000
40.10200500,-52.56022000
40.14968872,-55.20383000
40.19737244,-55.51594000
40.24505615,-59.13557000
40.29273987,-56.33176000
40.34042358,-54.73278000
40.38810730,-58.41159000
40.43579102,-55.91359000
40.48347473,-57.02579000
40.53115845,-61.72550000
40.57884216,-57.94454000
40.62652588,-54.18855000
40.67420959,-55.72935000
40.72189331,-68.22080000
40.76957703,-56.83630000
40.81726074,-56.77586000
40.86494446,-68.21481000
40.91262817,-59.07423000
40.96031189,-62.09401000
41.00799561,-66.96327000
41.05567932,-56.51173000
41.10336304,-53.55103000
41.15104675,-55.82107000
41.19873047,-61.07280000
41.24641418,-60.68777000
41.29409790,-60.41828000
41.34178162,-60.18166000
41.38946533,-59.05922000
41.43714905,-59.42574000
41.48483276,-65.65885000
41.53251648,-56.35392000
41.58020020,-52.91943000
41.62788391,-57.31160000
41.67556763,-58.09380000
41.72325134,-57.97046000
41.77093506,-65.08656000
41.81861877,-55.50148000
41.86630249,-63.20597000
41.91398621,-76.96867000
41.96166992,-67.73564000
42.00935364,-54.42820000
42.05703735,-50.95974000
42.10472107,-51.26668000
42.15240479,-50.29108000
42.20008850,-50.24238000
42.24777222,-49.45984000
42.29545593,-49.96878000
42.34313965,-53.26605000
42.39082336,-54.73326000
42.43850708,-56.51797000
42.48619080,-58.84619000
42.53387451,-62.03281000
42.58155823,-82.71632000
42.62924194,-62.61555000
42.67692566,-68.69047000
42.72460938,-63.75148000
42.77229309,-58.08530000
42.81997681,-55.01256000
42.86766052,-56.33715000
42.91534424,-55.26465000
42.96302795,-54.66561000
43.01071167,-53.32523000
43.05839539,-57.54623000
43.10607910,-64.01201000
43.15376282,-55.63766000
43.20144653,-56.72924000
43.24913025,-61.07444000
43.29681396,-59.67030000
43.34449768,-52.25124000
43.39218140,-51.90828000
43.43986511,-54.78968000
43.48754883,-57.04729000
43.53523254,-61.40553000
43.58291626,-74.80383000
43.63059998,-71.88135000
43.67828369,-63.02757000
43.72596741,-60.12544000
43.77365112,-67.87011000
43.82133484,-54.31243000
43.86901855,-55.78635000
43.91670227,-60.65400000
43.96438599,-54.91190000
44.01206970,-60.89842000
44.05975342,-60.89830000
44.10743713,-54.78721000
44.15512085,-55.76510000
44.20280457,-59.93509000
44.25048828,-70.08475000
44.29817200,-58.17757000
44.34585571,-58.15832000
44.39353943,-64.43326000
44.44122314,-56.98112000
44.48890686,-52.96854000
44.53659058,-54.31770000
44.58427429,-61.67957000
44.63195801,-62.90764000
44.67964172,-58.86788000
44.72732544,-57.63361000
44.77500916,-69.07541000
44.82269287,-55.90061000
44.87037659,-59.76851000
44.91806030,-55.86800000
44.96574402,-58.18761000
45.01342773,-60.54069000
45.06111145,-60.63495000
45.10879517,-59.38797000
45.15647888,-58.77135000
45.20416260,-62.94898000
45.25184631,-63.86030000
45.29953003,-53.90675000
45.34721375,-51.30630000
45.39489746,-52.05674000
45.44258118,-51.23234000
45.49026489,-53.23784000
45.53794861,-56.42490000
45.58563232,-55.55653000
45.63331604,-52.18830000
45.68099976,-53.87970000
45.72868347,-54.92267000
45.77636719,-59.16351000
45.82405090,-59.87646000
45.87173462,-55.95741000
45.91941833,-52.13818000
45.96710205,-50.44659000
46.01478577,-52.51692000
46.06246948,-52.79655000
46.11015320,-51.16520000
46.15783691,-50.32153000
46.20552063,-51.42880000
46.25320435,-53.71702000
46.30088806,-52.46177000
46.34857178,-55.73620000
46.39625549,-58.48710000
46.44393921,-52.41145000
46.49162292,-50.63060000
46.53930664,-48.81657000
46.58699036,-50.59618000
46.63467407,-54.32603000
46.68235779,-56.19722000
46.73004150,-55.75925000
46.77772522,-54.35207000
46.82540894,-55.46986000
46.87309265,-52.45750000
46.92077637,-50.56702000
46.96846008,-52.08389000
47.01614380,-54.40105000
47.06382751,-55.47592000
47.11151123,-54.21825000
47.15919495,-53.69109000
47.20687866,-52.96400000
47.25456238,-51.06794000
47.30224609,-53.66042000
47.34992981,-60.42975000
47.39761353,-60.78051000
47.44529724,-57.92609000
47.49298096,-67.77092000
47.54066467,-62.89155000
47.58834839,-58.96706000
47.63603210,-53.34110000
47.68371582,-56.71885000
47.73139954,-52.73662000
47.77908325,-52.39490000
47.82676697,-57.32959000
47.87445068,-58.10857000
47.92213440,-52.21330000
47.96981812,-52.31227000
48.01750183,-52.23555000
48.06518555,-49.29871000
48.11286926,-50.93773000
48.16055298,-52.73629000
48.20823669,-53.41202000
48.25592041,-60.16361000
48.30360413,-66.16613000
48.35128784,-56.02756000
48.39897156,-54.51457000
48.44665527,-53.10649000
48.49433899,-53.11566000
48.54202271,-59.70524000
48.58970642,-61.11044000
48.63739014,-60.36458000
48.68507385,-59.23761000
48.73275757,-61.29697000
48.78044128,-61.96312000
48.82812500,-54.06044000
48.87580872,-55.53394000
48.92349243,-55.02811000
48.97117615,-54.18465000
49.01885986,-54.97047000
49.06654358,-56.63114000
49.11422729,-59.33228000
49.16191101,-62.15761000
49.20959473,-56.83468000
49.25727844,-52.47103000
49.30496216,-55.59565000
49.35264587,-59.19687000
49.40032959,-57.22240000
49.44801331,-57.53460000
49.49569702,-59.87282000
49.54338074,-57.31578000
49.59106445,-55.29575000
49.63874817,-56.48632000
49.68643188,-60.60899000
49.73411560,-60.86331000
49.78179932,-65.09045000
49.82948303,-52.59893000
49.87716675,-52.85402000
49.92485046,-58.79681000
49.97253418,-60.69130000
50.02021790,-55.26720000
50.06790161,-60.07611000
50.11558533,-57.05585000
50.16326904,-56.03063000
50.21095276,-60.42164000
50.25863647,-61.13665000
50.30632019,-68.40897000
50.35400391,-65.80614000
50.40168762,-60.10420000
50.44937134,-60.79056000
50.49705505,-60.10076000
50.54473877,-65.84081000
50.59242249,-51.71565000
50.64010620,-50.87888000
50.68778992,-57.25319000
50.73547363,-58.75414000
50.78315735,-53.07473000
50.83084106,-50.85826000
50.87852478,-52.73089000
50.92620850,-58.04879000
50.97389221,-58.40652000
51.02157593,-59.19079000
51.06925964,-63.89291000
51.11694336,-66.43439000
51.16462708,-74.16474000
51.21231079,-58.91456000
51.25999451,-54.29683000
51.30767822,-57.68888000
51.35536194,-62.90853000
51.40304565,-64.32249000
51.45072937,-58.70065000
51.49841309,-57.34179000
51.54609680,-68.38159000
51.59378052,-60.20446000
51.64146423,-54.13363000
51.68914795,-56.23438000
51.73683167,-58.99208000
51.78451538,-60.61645000
51.83219910,-58.10441000
51.87988281,-53.07430000
51.92756653,-56.85593000
51.97525024,-61.23886000
52.02293396,-56.24477000
52.07061768,-53.77682000
52.11830139,-51.30996000
52.16598511,-51.28330000
52.21366882,-53.09399000
52.26135254,-52.92724000
52.30903625,-53.59345000
52.35671997,-53.18699000
52.40440369,-62.09742000
52.45208740,-59.32792000
52.49977112,-58.83150000
52.54745483,-55.56068000
52.59513855,-60.37833000
52.64282227,-63.48610000
52.69050598,-57.23701000
52.73818970,-55.09815000
52.78587341,-55.88639000
52.83355713,-56.74217000
52.88124084,-60.46699000
52.92892456,-51.68843000
52.97660828,-53.41129000
53.02429199,-59.04517000
53.07197571,-53.07216000
53.11965942,-53.24242000
53.16734314,-54.11984000
53.21502686,-52.27930000
53.26271057,-51.50889000
53.31039429,-55.20985000
53.35807800,-60.33580000
53.40576172,-62.09777000
53.45344543,-70.07620000
53.50112915,-59.68714000
53.54881287,-56.09707000
53.59649658,-57.00810000
53.64418030,-58.81099000
53.69186401,-56.95444000
53.73954773,-56.55444000
53.78723145,-73.97984000
53.83491516,-60.19733000
53.88259888,-52.10590000
53.93028259,-53.55328000
53.97796631,-55.51143000
54.02565002,-59.22940000
54.07333374,-56.67063000
54.12101746,-51.36477000
54.16870117,-55.82584000
54.21638489,-63.40338000
54.26406860,-55.61922000
54.31175232,-53.13113000
54.35943604,-54.41225000
54.40711975,-57.23233000
54.45480347,-60.13286000
54.50248718,-58.80070000
54.55017090,-54.26289000
54.59785461,-53.93675000
54.64553833,-64.13807000
54.69322205,-56.07287000
54.74090576,-53.80489000
54.78858948,-53.41224000
54.83627319,-55.91724000
54.88395691,-59.14350000
54.93164063,-61.54053000
54.97932434,-59.37400000
55.02700806,-61.00170000
55.07469177,-62.28901000
55.12237549,-54.78164000
55.17005920,-57.01736000
55.21774292,-57.74903000
55.26542664,-51.43179000
55.31311035,-51.10146000
55.36079407,-54.86945000
55.40847778,-56.33220000
55.45616150,-52.49858000
55.50384521,-55.28326000
55.55152893,-62.29227000
55.59921265,-64.18661000
55.64689636,-67.06610000
55.69458008,-67.30018000
55.74226379,-60.82466000
55.78994751,-58.65361000
55.83763123,-60.93080000
55.88531494,-61.63267000
55.93299866,-58.29405000
55.98068237,-65.99007000
56.02836609,-58.70892000
56.07604980,-52.81557000
56.12373352,-50.87445000
56.17141724,-53.96257000
56.21910095,-56.03575000
56.26678467,-52.17506000
56.31446838,-54.79010000
56.36215210,-66.30771000
56.40983582,-53.88599000
56.45751953,-57.10815000
56.50520325,-69.21737000
56.55288696,-55.38771000
56.60057068,-54.29966000
56.64825439,-62.34821000
56.69593811,-53.77440000
56.74362183,-54.88181000
56.79130554,-59.04139000
56.83898926,-58.66471000
56.88667297,-59.98668000
56.93435669,-57.84782000
56.98204041,-57.28024000
57.02972412,-54.29693000
57.07740784,-56.16625000
57.12509155,-67.41927000
57.17277527,-60.04031000
57.22045898,-51.64352000
57.26814270,-52.07281000
57.31582642,-55.38600000
57.36351013,-52.64954000
57.41119385,-55.24434000
57.45887756,-61.41271000
57.50656128,-53.35340000
57.55424500,-50.98448000
57.60192871,-54.13900000
57.64961243,-56.48455000
57.69729614,-51.18616000
57.74497986,-52.27974000
57.79266357,-56.04295000
57.84034729,-58.48812000
57.88803101,-56.66748000
57.93571472,-62.98645000
57.98339844,-56.87409000
58.03108215,-56.21620000
58.07876587,-64.69789000
58.12644958,-64.52930000
58.17413330,-61.54955000
58.22181702,-55.38388000
58.26950073,-52.18885000
58.31718445,-51.67912000
58.36486816,-52.99523000
58.41255188,-61.80673000
58.46023560,-61.87301000
58.50791931,-61.67982000
58.55560303,-61.67073000
58.60328674,-56.67174000
58.65097046,-58.05468000
58.69865417,-58.91454000
58.74633789,-63.57350000
58.79402161,-62.41399000
58.84170532,-55.97605000
58.88938904,-62.15688000
58.93707275,-63.35241000
58.98475647,-68.59248000
59.03244019,-63.43156000
59.08012390,-65.05077000
59.12780762,-67.19714000
59.17549133,-65.15685000
59.22317505,-60.77414000
59.27085876,-51.49707000
59.31854248,-52.72605000
59.36622620,-66.87927000
59.41390991,-63.34496000
59.46159363,-75.72988000
59.50927734,-58.91516000
59.55696106,-58.93565000
59.60464478,-55.56977000
59.65232849,-54.43571000
59.70001221,-57.73373000
59.74769592,-54.78374000
59.79537964,-53.43185000
59.84306335,-57.25936000
59.89074707,-54.95021000
59.93843079,-47.58032000
59.98611450,-44.97276000
60.03379822,-48.41652000
60.08148193,-56.68163000
60.12916565,-57.13352000
60.17684937,-56.30007000
60.22453308,-64.80650000
60.27221680,-62.04719000
60.31990051,-57.60375000
60.36758423,-58.77543000
60.41526794,-65.30338000
60.46295166,-56.50726000
60.51063538,-57.89090000
60.55831909,-64.00969000
60.60600281,-59.32730000
60.65368652,-65.05583000
60.70137024,-53.60581000
60.74905396,-49.67899000
60.79673767,-50.34999000
60.84442139,-55.72796000
60.89210510,-67.71316000
60.93978882,-62.87860000
60.98747253,-59.02515000
61.03515625,-58.37355000
61.08283997,-61.85888000
61.13052368,-67.44527000
61.17820740,-74.21114000
61.22589111,-64.22440000
61.27357483,-58.70184000
61.32125854,-63.51032000
61.36894226,-57.25464000
61.41662598,-54.24594000
61.46430969,-55.43536000
61.51199341,-55.35225000
61.55967712,-53.45770000
61.60736084,-52.91576000
61.65504456,-51.80622000
61.70272827,-55.52584000
61.75041199,-57.11773000
61.79809570,-59.10637000
61.84577942,-62.42560000
61.89346313,-57.73859000
61.94114685,-57.16358000
61.98883057,-53.65721000
62.03651428,-65.81624000
62.08419800,-55.66145000
62.13188171,-58.77982000
62.17956543,-64.26080000
62.22724915,-53.14707000
62.27493286,-54.52797000
62.32261658,-60.46801000
62.37030029,-58.88356000
62.41798401,-55.73508000
62.46566772,-68.02744000
62.51335144,-59.20535000
62.56103516,-62.75090000
62.60871887,-63.89964000
62.65640259,-57.67208000
62.70408630,-58.03891000
62.75177002,-57.57111000
62.79945374,-55.28283000
62.84713745,-56.63116000
62.89482117,-59.56715000
62.94250488,-61.30846000
62.99018860,-66.84433000
63.03787231,-72.27292000
63.08555603,-57.22636000
63.13323975,-54.07187000
63.18092346,-58.30323000
63.22860718,-62.73024000
63.27629089,-63.55022000
63.32397461,-62.51567000
63.37165833,-62.55501000
63.41934204,-55.72052000
63.46702576,-52.87510000
63.51470947,-56.45737000
63.56239319,-60.66702000
63.61007690,-54.85594000
63.65776062,-57.39494000
63.70544434,-57.14092000
63.75312805,-52.61734000
63.80081177,-51.86876000
63.84849548,-53.26496000
63.89617920,-62.24713000
63.94386292,-57.41215000
63.99154663,-51.78236000
64.03923035,-54.02531000
64.08691406,-56.74266000
64.13459778,-53.12454000
64.18228149,-53.82238000
64.22996521,-52.85801000
64.27764893,-50.21359000
64.32533264,-50.29420000
64.37301636,-52.81818000
64.42070007,-54.37568000
64.46838379,-56.47005000
64.51606750,-70.11105000
64.56375122,-63.26141000
64.61143494,-58.92102000
64.65911865,-51.67953000
64.70680237,-51.95325000
64.75448608,-58.67173000
64.80216980,-55.86446000
64.84985352,-47.61776000
64.89753723,-46.52253000
64.94522095,-50.39645000
64.99290466,-52.82505000
65.04058838,-53.45572000
65.08827209,-53.09385000
65.13595581,-60.07152000
65.18363953,-56.25722000
65.23132324,-49.67696000
65.27900696,-54.80026000
65.32669067,-56.30058000
65.37437439,-54.53265000
65.42205811,-56.33857000
65.46974182,-49.37772000
65.51742554,-50.44674000
65.56510925,-65.78002000
65.61279297,-58.74540000
65.66047668,-56.08404000
65.70816040,-53.52353000
65.75584412,-53.98185000
65.80352783,-55.09945000
65.85121155,-57.35476000
65.89889526,-56.94324000
65.94657898,-62.66030000
65.99426270,-60.03917000
66.04194641,-55.23934000
66.08963013,-58.61080000
66.13731384,-58.68262000
66.18499756,-72.23212000
66.23268127,-57.27541000
66.28036499,-58.34719000
66.32804871,-61.26522000
66.37573242,-60.54222000
66.42341614,-56.81944000
66.47109985,-50.61968000
66.51878357,-51.62338000
66.56646729,-55.63488000
66.61415100,-52.87012000
66.66183472,-55.33168000
66.70951843,-69.41535000
66.75720215,-67.65883000
66.80488586,-54.37380000
66.85256958,-49.15288000
66.90025330,-49.87190000
66.94793701,-56.04580000
66.99562073,-54.10498000
67.04330444,-58.05392000
67.09098816,-59.58120000
67.13867188,-55.93494000
67.18635559,-60.64191000
67.23403931,-49.54276000
67.28172302,-49.23459000
67.32940674,-55.60822000
67.37709045,-65.86893000
67.42477417,-56.62361000
67.47245789,-58.49858000
67.52014160,-59.94297000
67.56782532,-62.35060000
67.61550903,-63.81508000
67.66319275,-56.17903000
67.71087646,-57.47151000
67.75856018,-62.81080000
67.80624390,-58.00438000
67.85392761,-57.22670000
67.90161133,-58.82424000
67.94929504,-60.94263000
67.99697876,-55.08862000
68.04466248,-53.20063000
68.09234619,-63.39726000
68.14002991,-59.29681000
68.18771362,-56.94822000
68.23539734,-60.39337000
68.28308105,-66.49577000
68.33076477,-65.14508000
68.37844849,-64.48976000
68.42613220,-56.15957000
68.47381592,-53.63766000
68.52149963,-66.82098000
68.56918335,-59.67400000
68.61686707,-60.17185000
68.66455078,-65.65221000
68.71223450,-57.39751000
68.75991821,-55.39425000
68.80760193,-68.17962000
68.85528564,-53.94648000
68.90296936,-51.89836000
68.95065308,-55.79012000
68.99833679,-65.94918000
69.04602051,-52.29574000
69.09370422,-54.03438000
69.14138794,-59.78988000
69.18907166,-54.72886000
69.23675537,-62.50296000
69.28443909,-72.42171000
69.33212280,-60.42847000
69.37980652,-56.36990000
69.42749023,-56.40801000
69.47517395,-60.93721000
69.52285767,-61.22432000
69.57054138,-71.24699000
69.61822510,-61.16360000
69.66590881,-58.17566000
69.71359253,-60.35522000
69.76127625,-54.41850000
69.80895996,-50.77015000
69.85664368,-53.40462000
69.90432739,-71.37035000
69.95201111,-64.01968000
69.99969482,-71.62846000
70.04737854,-55.21949000
70.09506226,-53.98300000
70.14274597,-50.83355000
70.19042969,-45.71535000
70.23811340,-47.07744000
70.28579712,-52.82854000
70.33348083,-54.38100000
70.38116455,-52.25282000
70.42884827,-52.61965000
70.47653198,-54.90496000
70.52421570,-55.86385000
70.57189941,-59.61478000
70.61958313,-64.65547000
70.66726685,-69.92451000
70.71495056,-68.88980000
70.76263428,-61.23178000
70.81031799,-52.89693000
70.85800171,-54.73198000
70.90568542,-68.43532000
70.95336914,-61.44814000
71.00105286,-65.29713000
71.04873657,-70.29998000
71.09642029,-68.33815000
71.14410400,-60.11856000
71.19178772,-56.54173000
71.23947144,-57.03422000
71.28715515,-70.76830000
71.33483887,-57.61939000
71.38252258,-53.62767000
71.43020630,-53.70642000
71.47789001,-58.54450000
71.52557373,-65.06549000
71.57325745,-54.08619000
71.62094116,-51.89961000
71.66862488,-48.97997000
71.71630859,-49.37775000
71.76399231,-54.37267000
71.81167603,-54.46209000
71.85935974,-51.40835000
71.90704346,-58.19751000
71.95472717,-65.48331000
72.00241089,-57.95155000
72.05009460,-54.67630000
72.09777832,-74.94083000
72.14546204,-56.43437000
72.19314575,-62.50985000
72.24082947,-54.87709000
72.28851318,-56.65504000
72.33619690,-64.93565000
72.38388062,-65.48520000
72.43156433,-57.95824000
72.47924805,-66.03890000
72.52693176,-59.84768000
72.57461548,-60.31496000
72.62229919,-66.97464000
72.66998291,-61.47908000
72.71766663,-57.50576000
72.76535034,-63.15248000
72.81303406,-62.14875000
72.86071777,-53.61877000
72.90840149,-52.66218000
72.95608521,-50.62961000
73.00376892,-49.19851000
73.05145264,-50.29169000
73.09913635,-52.96795000
73.14682007,-56.92625000
73.19450378,-57.32575000
73.24218750,-51.42776000
73.28987122,-52.32967000
73.33755493,-59.54410000
73.38523865,-58.60943000
73.43292236,-54.20267000
73.48060608,-56.00927000
73.52828979,-50.75410000
73.57597351,-54.31384000
73.62365723,-51.86003000
73.67134094,-52.05960000
73.71902466,-61.08401000
73.76670837,-59.40925000
73.81439209,-62.22129000
73.86207581,-49.62235000
73.90975952,-48.28796000
73.95744324,-54.52694000
74.00512695,-53.56731000
74.05281067,-54.40162000
74.10049438,-55.54591000
74.14817810,-63.12071000
74.19586182,-64.36320000
74.24354553,-63.62505000
74.29122925,-61.17709000
74.33891296,-62.25443000
74.38659668,-56.86173000
74.43428040,-52.40849000
74.48196411,-52.60773000
74.52964783,-52.51026000
74.57733154,-56.33429000
74.62501526,-63.28371000
74.67269897,-68.95730000
74.72038269,-58.01655000
74.76806641,-54.93562000
74.81575012,-53.71723000
74.86343384,-56.38634000
74.91111755,-56.67171000
74.95880127,-52.83070000
75.00648499,-52.19456000
75.05416870,-55.60434000
75.10185242,-57.72012000
75.14953613,-51.57270000
75.19721985,-51.17388000
75.24490356,-50.22822000
75.29258728,-49.53817000
75.34027100,-52.19970000
75.38795471,-55.48711000
75.43563843,-56.89968000
75.48332214,-52.81337000
75.53100586,-55.28708000
75.57868958,-81.32986000
75.62637329,-64.20482000
75.67405701,-66.58904000
75.72174072,-70.79570000
75.76942444,-59.02609000
75.81710815,-61.83297000
75.86479187,-62.09019000
75.91247559,-62.69862000
75.96015930,-54.93393000
76.00784302,-52.55215000
76.05552673,-54.94915000
76.10321045,-59.97159000
76.15089417,-64.85422000
76.19857788,-60.60469000
76.24626160,-56.39282000
76.29394531,-52.26040000
76.34162903,-49.72953000
76.38931274,-51.42393000
76.43699646,-54.25193000
76.48468018,-58.42213000
76.53236389,-61.72690000
76.58004761,-64.52937000
76.62773132,-68.05297000
76.67541504,-55.37099000
76.72309875,-51.06300000
76.77078247,-54.89809000
76.81846619,-57.38731000
76.86614990,-59.80672000
76.91383362,-60.86110000
76.96151733,-57.38031000
77.00920105,-54.93893000
77.05688477,-59.01176000
77.10456848,-63.54059000
77.15225220,-67.53824000
77.19993591,-57.56771000
77.24761963,-55.34319000
77.29530334,-53.35055000
77.34298706,-53.37703000
77.39067078,-62.44179000
77.43835449,-57.60588000
77.48603821,-79.29975000
77.53372192,-62.35157000
77.58140564,-57.81131000
77.62908936,-58.00791000
77.67677307,-55.58061000
77.72445679,-58.10823000
77.77214050,-64.58369000
77.81982422,-57.56408000
77.86750793,-54.66932000
77.91519165,-56.75999000
77.96287537,-61.40490000
78.01055908,-56.87162000
78.05824280,-55.99466000
78.10592651,-63.51221000
78.15361023,-68.77024000
78.20129395,-58.69927000
78.24897766,-61.17928000
78.29666138,-61.39902000
78.34434509,-57.42882000
78.39202881,-55.70512000
78.43971252,-51.24488000
78.48739624,-57.13527000
78.53507996,-78.67683000
78.58276367,-57.64917000
78.63044739,-55.12171000
78.67813110,-61.82014000
78.72581482,-71.01894000
78.77349854,-58.43644000
78.82118225,-53.70417000
78.86886597,-52.51164000
78.91654968,-56.92622000
78.96423340,-74.54055000
79.01191711,-62.51633000
79.05960083,-59.34200000
79.10728455,-56.83566000
79.15496826,-61.54201000
79.20265198,-57.32994000
79.25033569,-53.67104000
79.29801941,-55.18272000
79.34570313,-63.69690000
79.39338684,-55.40447000
79.44107056,-57.45245000
79.48875427,-55.74509000
79.53643799,-54.12471000
79.58412170,-57.92004000
79.63180542,-51.22074000
79.67948914,-52.01174000
79.72717285,-54.26083000
79.77485657,-56.02841000
79.82254028,-67.63203000
79.87022400,-62.50679000
79.91790771,-63.42530000
79.96559143,-58.59071000
80.01327515,-53.69865000
80.06095886,-55.48245000
80.10864258,-59.58070000
80.15632629,-55.46934000
80.20401001,-65.51871000
80.25169373,-52.74271000
80.29937744,-54.66887000
80.34706116,-59.21749000
80.39474487,-60.65913000
80.44242859,-69.14737000
80.49011230,-65.61955000
80.53779602,-60.46607000
80.58547974,-54.69993000
80.63316345,-52.45447000
80.68084717,-51.29702000
80.72853088,-53.80481000
80.77621460,-58.43903000
80.82389832,-58.75645000
80.87158203,-58.23768000
80.91926575,-54.10960000
80.96694946,-52.21145000
81.01463318,-57.70415000
81.06231689,-61.33140000
81.11000061,-57.77423000
81.15768433,-63.94592000
81.20536804,-59.38689000
81.25305176,-55.08097000
81.30073547,-54.42642000
81.34841919,-58.53928000
81.39610291,-74.44855000
81.44378662,-61.00963000
81.49147034,-65.62849000
81.53915405,-65.47128000
81.58683777,-58.56427000
81.63452148,-66.45835000
81.68220520,-59.78184000
81.72988892,-71.52928000
81.77757263,-59.27748000
81.82525635,-56.96314000
81.87294006,-54.48160000
81.92062378,-51.36526000
81.96830750,-51.64801000
82.01599121,-52.18900000
82.06367493,-51.42928000
82.11135864,-53.31968000
82.15904236,-53.90912000
82.20672607,-51.29986000
82.25440979,-53.41759000
82.30209351,-59.22087000
82.34977722,-56.33938000
82.39746094,-57.22549000
82.44514465,-60.81390000
82.49282837,-61.54789000
82.54051208,-58.24524000
82.58819580,-55.07810000
82.63587952,-52.08990000
82.68356323,-55.72424000
82.73124695,-61.97943000
82.77893066,-56.48033000
82.82661438,-52.49320000
82.87429810,-53.69048000
82.92198181,-67.17086000
82.96966553,-60.65018000
83.01734924,-55.40771000
83.06503296,-53.25615000
83.11271667,-53.47843000
83.16040039,-56.49271000
83.20808411,-57.61072000
83.25576782,-52.32464000
83.30345154,-50.02782000
83.35113525,-59.94170000
83.39881897,-53.79660000
83.44650269,-54.94499000
83.49418640,-62.00374000
83.54187012,-62.44733000
83.58955383,-63.06832000
83.63723755,-56.07037000
83.68492126,-69.79176000
83.73260498,-50.78448000
83.78028870,-51.16392000
83.82797241,-57.88237000
83.87565613,-59.23796000
83.92333984,-51.62247000
83.97102356,-50.00676000
84.01870728,-54.42562000
84.06639099,-55.96970000
84.11407471,-54.13353000
84.16175842,-56.31890000
84.20944214,-77.31252000
84.25712585,-59.09690000
84.30480957,-53.88110000
84.35249329,-53.05920000
84.40017700,-57.53039000
84.44786072,-63.43931000
84.49554443,-60.08768000
84.54322815,-62.23411000
84.59091187,-57.33614000
84.63859558,-51.75236000
84.68627930,-49.69862000
84.73396301,-55.46988000
84.78164673,-74.83025000
84.82933044,-59.72589000
84.87701416,-57.11460000
84.92469788,-58.27146000
84.97238159,-59.08511000
85.02006531,-58.32548000
85.06774902,-63.16032000
85.11543274,-58.00076000
85.16311646,-56.74456000
85.21080017,-61.74639000
85.25848389,-72.70913000
85.30616760,-56.88446000
85.35385132,-54.46452000
85.40153503,-59.00009000
85.44921875,-61.04511000
85.49690247,-56.13646000
85.54458618,-62.39079000
85.59226990,-62.47172000
85.63995361,-74.40781000
85.68763733,-57.05933000
85.73532104,-59.04980000
85.78300476,-71.64430000
85.83068848,-74.68017000
85.87837219,-62.57230000
85.92605591,-59.93842000
85.97373962,-58.74668000
86.02142334,-57.35975000
86.06910706,-57.04730000
86.11679077,-60.69441000
86.16447449,-56.39208000
86.21215820,-57.51954000
86.25984192,-59.86400000
86.30752563,-59.62519000
86.35520935,-60.01563000
86.40289307,-62.74780000
86.45057678,-59.33392000
86.49826050,-68.47152000
86.54594421,-56.58200000
86.59362793,-58.21420000
86.64131165,-68.43379000
86.68899536,-59.79847000
86.73667908,-56.25443000
86.78436279,-56.71850000
86.83204651,-55.75096000
86.87973022,-55.53646000
86.92741394,-56.06500000
86.97509766,-59.59469000
87.02278137,-60.29885000
87.07046509,-62.09767000
87.11814880,-67.80158000
87.16583252,-62.12487000
87.21351624,-58.09126000
87.26119995,-60.96879000
87.30888367,-56.61491000
87.35656738,-56.49451000
87.40425110,-59.87796000
87.45193481,-56.60442000
87.49961853,-56.29195000
87.54730225,-55.65079000
87.59498596,-53.50285000
87.64266968,-53.32212000
87.69035339,-57.36700000
87.73803711,-56.75039000
87.78572083,-56.55103000
87.83340454,-52.32360000
87.88108826,-51.57881000
87.92877197,-54.02078000
87.97645569,-53.18277000
88.02413940,-54.72441000
88.07182312,-54.29433000
88.11950684,-50.78497000
88.16719055,-50.48470000
88.21487427,-50.11799000
88.26255798,-49.17708000
88.31024170,-49.17509000
88.35792542,-51.48779000
88.40560913,-55.69012000
88.45329285,-56.28619000
88.50097656,-53.52687000
88.54866028,-53.66502000
88.59634399,-58.27569000
88.64402771,-74.04799000
88.69171143,-62.27122000
88.73939514,-55.04382000
88.78707886,-56.12999000
88.83476257,-62.13770000
88.88244629,-58.26751000
88.93013000,-55.58183000
88.97781372,-59.12928000
89.02549744,-63.33397000
89.07318115,-61.25126000
89.12086487,-53.08491000
89.16854858,-49.44853000
89.21623230,-51.68916000
89.26391602,-60.09711000
89.31159973,-56.90433000
89.35928345,-63.01897000
89.40696716,-66.94714000
89.45465088,-64.50962000
89.50233459,-65.25092000
89.55001831,-65.58437000
89.59770203,-55.84730000
89.64538574,-53.58676000
89.69306946,-56.24845000
89.74075317,-57.80346000
89.78843689,-58.56836000
89.83612061,-59.93402000
89.88380432,-58.59680000
89.93148804,-58.18872000
89.97917175,-59.65129000
90.02685547,-79.63604000
90.07453918,-64.46173000
90.12222290,-62.87868000
90.16990662,-59.55750000
90.21759033,-62.05135000
90.26527405,-60.04544000
90.31295776,-67.07200000
90.36064148,-61.31310000
90.40832520,-64.66847000
90.45600891,-53.40323000
90.50369263,-51.43488000
90.55137634,-57.31428000
90.59906006,-60.96612000
90.64674377,-52.84442000
90.69442749,-51.17252000
90.74211121,-51.75079000
90.78979492,-56.57627000
90.83747864,-60.53764000
90.88516235,-62.90386000
90.93284607,-54.42731000
90.98052979,-56.21505000
91.02821350,-54.19972000
91.07589722,-51.36592000
91.12358093,-53.16162000
91.17126465,-52.34818000
91.21894836,-53.15810000
91.26663208,-60.26595000
91.31431580,-62.48885000
91.36199951,-63.41293000
91.40968323,-76.22549000
91.45736694,-61.39160000
91.50505066,-55.65284000
91.55273438,-54.85235000
91.60041809,-56.43620000
91.64810181,-57.16724000
91.69578552,-58.84441000
91.74346924,-56.62984000
91.79115295,-58.18672000
91.83883667,-57.85545000
91.88652039,-57.14703000
91.93420410,-50.30237000
91.98188782,-47.50843000
92.02957153,-50.48231000
92.07725525,-61.66621000
92.12493896,-63.07377000
92.17262268,-62.23047000
92.22030640,-61.56670000
92.26799011,-59.59420000
92.31567383,-60.64264000
92.36335754,-59.75045000
92.41104126,-52.83306000
92.45872498,-55.03064000
92.50640869,-62.80861000
92.55409241,-72.46571000
92.60177612,-68.07861000
92.64945984,-71.67154000
92.69714355,-61.40013000
92.74482727,-54.61717000
92.79251099,-52.74642000
92.84019470,-56.51908000
92.88787842,-56.90021000
92.93556213,-56.32033000
92.98324585,-70.85834000
93.03092957,-53.59295000
93.07861328,-51.92029000
93.12629700,-56.54256000
93.17398071,-64.39011000
93.22166443,-56.86599000
93.26934814,-51.70511000
93.31703186,-55.14470000
93.36471558,-60.30710000
93.41239929,-57.30615000
93.46008301,-55.08841000
93.50776672,-54.09659000
93.55545044,-59.66837000
93.60313416,-54.26191000
93.65081787,-57.87078000
93.69850159,-61.55123000
93.74618530,-54.93521000
93.79386902,-59.31358000
93.84155273,-63.23371000
93.88923645,-57.03677000
93.93692017,-57.72277000
93.98460388,-64.04971000
94.03228760,-60.99082000
94.07997131,-63.25385000
94.12765503,-58.75930000
94.17533875,-61.02572000
94.22302246,-52.79634000
94.27070618,-54.39754000
94.31838989,-64.96804000
94.36607361,-62.99648000
94.41375732,-56.10830000
94.46144104,-61.43768000
94.50912476,-60.28905000
94.55680847,-60.39566000
94.60449219,-57.17548000
94.65217590,-55.06925000
94.69985962,-60.37535000
94.74754333,-56.71921000
94.79522705,-61.03575000
94.84291077,-55.84982000
94.89059448,-52.52631000
94.93827820,-56.03085000
94.98596191,-59.15615000
95.03364563,-60.41932000
95.08132935,-59.69207000
95.12901306,-64.06217000
95.17669678,-61.00102000
95.22438049,-64.62714000
95.27206421,-52.64733000
95.31974792,-52.57628000
95.36743164,-61.57246000
95.41511536,-61.92446000
95.46279907,-60.03621000
95.51048279,-66.12222000
95.55816650,-59.43060000
95.60585022,-53.61055000
95.65353394,-52.06688000
95.70121765,-53.37862000
95.74890137,-56.20113000
95.79658508,-61.76943000
95.84426880,-70.36684000
95.89195251,-63.82255000
95.93963623,-64.65540000
95.98731995,-61.27413000
96.03500366,-52.93291000
96.08268738,-56.70311000
96.13037109,-66.29884000
96.17805481,-59.89164000
96.22573853,-57.73928000
96.27342224,-63.76644000
96.32110596,-66.18101000
96.36878967,-65.99067000
96.41647339,-64.69134000
96.46415710,-69.62418000
96.51184082,-63.61172000
96.55952454,-61.18606000
96.60720825,-61.83623000
96.65489197,-76.58340000
96.70257568,-61.64051000
96.75025940,-59.82986000
96.79794312,-66.03531000
96.84562683,-63.85928000
96.89331055,-65.16597000
96.94099426,-57.55407000
96.98867798,-54.32926000
97.03636169,-53.83047000
97.08404541,-57.86101000
97.13172913,-53.69503000
97.17941284,-49.96241000
97.22709656,-50.67256000
97.27478027,-57.28237000
97.32246399,-66.43867000
97.37014771,-61.28847000
97.41783142,-55.80738000
97.46551514,-50.63269000
97.51319885,-52.44358000
97.56088257,-63.18116000
97.60856628,-66.38814000
97.65625000,-55.29972000
97.70393372,-49.47639000
97.75161743,-49.50832000
97.79930115,-52.58184000
97.84698486,-52.77351000
97.89466858,-57.90087000
97.94235229,-65.44769000
97.99003601,-68.21737000
98.03771973,-61.29068000
98.08540344,-52.78316000
98.13308716,-54.21999000
98.18077087,-60.71119000
98.22845459,-51.68364000
98.27613831,-51.32189000
98.32382202,-50.89753000
98.37150574,-54.23143000
98.41918945,-57.11553000
98.46687317,-52.77585000
98.51455688,-50.78595000
98.56224060,-53.14697000
98.60992432,-61.51074000
98.65760803,-57.49294000
98.70529175,-56.63288000
98.75297546,-54.44817000
98.80065918,-55.75985000
98.84834290,-51.12753000
98.89602661,-53.49510000
98.94371033,-56.08734000
98.99139404,-59.55000000
99.03907776,-71.66654000
99.08676147,-61.46561000
99.13444519,-56.11991000
99.18212891,-56.05454000
99.22981262,-55.22770000
99.27749634,-54.04145000
99.32518005,-57.40824000
99.37286377,-56.91915000
99.42054749,-62.61361000
99.46823120,-63.78326000
99.51591492,-58.08727000
99.56359863,-59.96127000
99.61128235,-58.48156000
99.65896606,-54.09971000
99.70664978,-55.93182000
99.75433350,-59.79298000
99.80201721,-58.03589000
99.84970093,-55.60423000
99.89738464,-56.42244000
99.94506836,-55.77254000
99.99275208,-54.36678000
100.04043579,-54.51799000
100.08811951,-53.85653000
100.13580322,-57.32014000
100.18348694,-70.08576000
100.23117065,-59.72773000
100.27885437,-55.56845000
100.32653809,-55.71157000
100.37422180,-52.15431000
100.42190552,-48.74725000
100.46958923,-51.29169000
100.51727295,-63.15535000
100.56495667,-63.74368000
100.61264038,-59.13422000
100.66032410,-62.36633000
100.70800781,-71.46690000
100.75569153,-59.10846000
100.80337524,-54.49783000
100.85105896,-55.09915000
100.89874268,-56.01387000
100.94642639,-56.54318000
100.99411011,-68.91689000
101.04179382,-68.40901000
101.08947754,-68.56300000
101.13716125,-63.06753000
101.18484497,-60.25788000
101.23252869,-65.09788000
101.28021240,-58.73724000
101.32789612,-52.73630000
101.37557983,-53.94062000
101.42326355,-58.76083000
101.47094727,-54.04240000
101.51863098,-54.73547000
101.56631470,-52.66438000
101.61399841,-52.71728000
101.66168213,-56.90883000
101.70936584,-64.51444000
101.75704956,-59.05429000
101.80473328,-61.22009000
101.85241699,-65.67889000
101.90010071,-59.95533000
101.94778442,-58.37006000
101.99546814,-55.24806000
102.04315186,-53.42913000
102.09083557,-63.16594000
102.13851929,-59.23012000
102.18620300,-55.95895000
102.23388672,-57.67856000
102.28157043,-62.54335000
102.32925415,-65.15876000
102.37693787,-68.98643000
102.42462158,-64.31842000
102.47230530,-59.14891000
102.51998901,-55.95678000
102.56767273,-53.62273000
102.61535645,-55.35622000
102.66304016,-58.74715000
102.71072388,-57.62382000
102.75840759,-57.98673000
102.80609131,-61.43076000
102.85377502,-53.21420000
102.90145874,-49.52502000
102.94914246,-48.28707000
102.99682617,-50.33265000
103.04450989,-56.44915000
103.09219360,-71.75677000
103.13987732,-67.95144000
103.18756104,-66.21358000
103.23524475,-57.33711000
103.28292847,-59.11225000
103.33061218,-63.10033000
103.37829590,-58.24881000
103.42597961,-56.54210000
103.47366333,-52.57039000
103.52134705,-51.16726000
103.56903076,-52.94153000
103.61671448,-53.92449000
103.66439819,-54.30639000
103.71208191,-57.55134000
103.75976563,-61.73862000
103.80744934,-64.86092000
103.85513306,-61.86287000
103.90281677,-66.11541000
103.95050049,-67.04768000
103.99818420,-62.49008000
104.04586792,-60.86091000
104.09355164,-57.36783000
104.14123535,-53.83894000
104.18891907,-53.62928000
104.23660278,-55.13667000
104.28428650,-57.85833000
104.33197021,-57.26387000
104.37965393,-55.58075000
104.42733765,-54.47840000
104.47502136,-51.76800000
104.52270508,-52.65600000
104.57038879,-55.87269000
104.61807251,-61.34527000
104.66575623,-58.82629000
104.71343994,-57.97665000
104.76112366,-56.19516000
104.80880737,-51.13760000
104.85649109,-49.93408000
104.90417480,-54.77591000
104.95185852,-67.55123000
104.99954224,-66.73445000
105.04722595,-55.27145000
105.09490967,-53.78129000
105.14259338,-67.49109000
105.19027710,-60.24040000
105.23796082,-63.21748000
105.28564453,-65.73940000
105.33332825,-70.33376000
105.38101196,-55.24617000
105.42869568,-53.46025000
105.47637939,-59.00574000
105.52406311,-53.70564000
105.57174683,-56.39504000
105.61943054,-54.74814000
105.66711426,-56.87210000
105.71479797,-67.84953000
105.76248169,-60.80260000
105.81016541,-55.51110000
105.85784912,-53.81996000
105.90553284,-53.74641000
105.95321655,-54.61834000
106.00090027,-59.69352000
106.04858398,-58.63644000
106.09626770,-60.86681000
106.14395142,-55.47951000
106.19163513,-61.78753000
106.23931885,-60.09799000
106.28700256,-56.54625000
106.33468628,-60.03781000
106.38237000,-59.68191000
106.43005371,-58.40348000
106.47773743,-61.60880000
106.52542114,-59.06620000
106.57310486,-55.22539000
106.62078857,-66.25404000
106.66847229,-52.75002000
106.71615601,-52.41486000
106.76383972,-57.45713000
106.81152344,-54.79530000
106.85920715,-52.13269000
106.90689087,-52.80449000
106.95457458,-54.76131000
107.00225830,-58.63174000
107.04994202,-64.68149000
107.09762573,-60.96611000
107.14530945,-66.23189000
107.19299316,-56.31675000
107.24067688,-50.64579000
107.28836060,-51.26459000
107.33604431,-55.69251000
107.38372803,-58.37777000
107.43141174,-55.33529000
107.47909546,-57.83910000
107.52677917,-67.96900000
107.57446289,-64.36805000
107.62214661,-67.50475000
107.66983032,-60.45016000
107.71751404,-63.57522000
107.76519775,-61.48691000
107.81288147,-56.79892000
107.86056519,-57.66735000
107.90824890,-65.10950000
107.95593262,-63.67922000
108.00361633,-55.92501000
108.05130005,-51.28332000
108.09898376,-51.90607000
108.14666748,-65.01225000
108.19435120,-60.21227000
108.24203491,-55.85830000
108.28971863,-55.27795000
108.33740234,-72.20869000
108.38508606,-68.06364000
108.43276978,-72.11130000
108.48045349,-61.70261000
108.52813721,-58.94082000
108.57582092,-61.70552000
108.62350464,-58.74422000
108.67118835,-57.44823000
108.71887207,-65.11195000
108.76655579,-64.28236000
108.81423950,-53.05111000
108.86192322,-51.07488000
108.90960693,-53.87154000
108.95729065,-63.47752000
109.00497437,-60.82085000
109.05265808,-51.40949000
109.10034180,-50.82171000
109.14802551,-60.40971000
109.19570923,-72.06479000
109.24339294,-56.22250000
109.29107666,-54.38628000
109.33876038,-62.74186000
109.38644409,-61.00605000
109.43412781,-57.22569000
109.48181152,-59.78768000
109.52949524,-57.74650000
109.57717896,-60.03260000
109.62486267,-62.74171000
109.67254639,-56.82671000
109.72023010,-55.97388000
109.76791382,-79.06019000
109.81559753,-58.81760000
109.86328125,-59.20851000
109.91096497,-60.34480000
109.95864868,-57.52850000
110.00633240,-54.95051000
110.05401611,-54.29311000
110.10169983,-54.35808000
110.14938354,-58.16796000
110.19706726,-64.31379000
110.24475098,-79.23593000
110.29243469,-70.46275000
110.34011841,-66.16940000
110.38780212,-65.33213000
110.43548584,-54.12349000
110.48316956,-53.60014000
110.53085327,-55.53471000
110.57853699,-52.73199000
110.62622070,-53.94581000
110.67390442,-53.86864000
110.72158813,-53.54185000
110.76927185,-58.00224000
110.81695557,-53.54114000
110.86463928,-53.20725000
110.91232300,-63.90919000
110.96000671,-55.70789000
111.00769043,-56.19855000
111.05537415,-58.17072000
111.10305786,-55.97140000
111.15074158,-61.63462000
111.19842529,-69.81525000
111.24610901,-64.75862000
111.29379272,-56.61919000
111.34147644,-52.05278000
111.38916016,-50.37489000
111.43684387,-50.77015000
111.48452759,-53.99794000
111.53221130,-56.79397000
111.57989502,-53.93661000
111.62757874,-54.19514000
111.67526245,-51.49525000
111.72294617,-50.20531000
111.77062988,-51.58405000
111.81831360,-56.04841000
111.86599731,-62.84272000
111.91368103,-61.07358000
111.96136475,-66.83382000
112.00904846,-60.79128000
112.05673218,-65.56325000
112.10441589,-63.17980000
112.15209961,-58.44646000
112.19978333,-57.57442000
112.24746704,-60.15560000
112.29515076,-63.56995000
112.34283447,-67.47465000
112.39051819,-68.58195000
112.43820190,-55.98255000
112.48588562,-53.63932000
112.53356934,-64.34676000
112.58125305,-54.52351000
112.62893677,-61.13727000
112.67662048,-70.34940000
112.72430420,-67.18740000
112.77198792,-64.99658000
112.81967163,-58.93826000
112.86735535,-58.54347000
112.91503906,-56.52143000
112.96272278,-54.70812000
113.01040649,-55.82140000
113.05809021,-57.11522000
113.10577393,-55.94869000
113.15345764,-57.07108000
113.20114136,-60.52983000
113.24882507,-58.11303000
113.29650879,-56.50840000
113.34419250,-53.35429000
113.39187622,-49.08424000
113.43955994,-51.39729000
113.48724365,-59.32190000
113.53492737,-60.45947000
113.58261108,-61.18189000
113.63029480,-60.15205000
113.67797852,-54.35333000
113.72566223,-50.70229000
113.77334595,-50.79143000
113.82102966,-53.52827000
113.86871338,-51.71719000
113.91639709,-52.88440000
113.96408081,-52.92233000
114.01176453,-50.77478000
114.05944824,-51.75903000
114.10713196,-60.66931000
114.15481567,-60.74258000
114.20249939,-55.82930000
114.25018311,-55.81627000
114.29786682,-66.60765000
114.34555054,-63.36465000
114.39323425,-58.85886000
114.44091797,-55.74478000
114.48860168,-57.47434000
114.53628540,-58.68389000
114.58396912,-59.97635000
114.63165283,-65.88103000
114.67933655,-53.53778000
114.72702026,-54.23077000
114.77470398,-66.56258000
114.82238770,-66.05687000
114.87007141,-71.01873000
114.91775513,-53.82318000
114.96543884,-50.37687000
115.01312256,-56.95898000
115.06080627,-59.27090000
115.10848999,-52.03883000
115.15617371,-53.10334000
115.20385742,-58.19218000
115.25154114,-57.50275000
115.29922485,-60.01138000
115.34690857,-56.59960000
115.39459229,-54.82499000
115.44227600,-60.31351000
115.48995972,-60.26044000
115.53764343,-61.60443000
115.58532715,-68.54277000
115.63301086,-65.19290000
115.68069458,-64.65974000
115.72837830,-60.96988000
115.77606201,-55.97296000
115.82374573,-55.61385000
115.87142944,-57.59147000
115.91911316,-55.19918000
115.96679688,-54.89434000
116.01448059,-57.06219000
116.06216431,-56.53574000
116.10984802,-61.16485000
116.15753174,-60.33751000
116.20521545,-57.37253000
116.25289917,-54.55172000
116.30058289,-56.45849000
116.34826660,-61.00979000
116.39595032,-65.28851000
116.44363403,-65.17444000
116.49131775,-60.33485000
116.53900146,-55.44670000
116.58668518,-56.63363000
116.63436890,-60.80341000
116.68205261,-68.03709000
116.72973633,-67.86706000
116.77742004,-55.79580000
116.82510376,-57.51457000
116.87278748,-62.63052000
116.92047119,-58.97679000
116.96815491,-57.42138000
117.01583862,-62.72992000
117.06352234,-64.52657000
117.11120605,-58.01014000
117.15888977,-51.75727000
117.20657349,-53.45018000
117.25425720,-53.32912000
117.30194092,-50.03579000
117.34962463,-52.63400000
117.39730835,-81.92787000
117.44499207,-69.64742000
117.49267578,-58.28129000
117.54035950,-55.24223000
117.58804321,-55.46513000
117.63572693,-61.03718000
117.68341064,-66.46070000
117.73109436,-57.59278000
117.77877808,-61.24295000
117.82646179,-54.54516000
117.87414551,-57.42932000
117.92182922,-53.82479000
117.96951294,-51.69815000
118.01719666,-63.70443000
118.06488037,-53.46798000
118.11256409,-52.06697000
118.16024780,-57.15881000
118.20793152,-53.49720000
118.25561523,-50.54743000
118.30329895,-54.54080000
118.35098267,-54.61116000
118.39866638,-54.50588000
118.44635010,-58.78118000
118.49403381,-63.23218000
118.54171753,-56.90978000
118.58940125,-70.48341000
118.63708496,-56.85149000
118.68476868,-54.83310000
118.73245239,-60.85668000
118.78013611,-61.19066000
118.82781982,-60.92985000
118.87550354,-62.34756000
118.92318726,-76.00474000
118.97087097,-56.46006000
119.01855469,-50.16970000
119.06623840,-51.99467000
119.11392212,-57.48213000
119.16160583,-57.63118000
119.20928955,-56.17170000
119.25697327,-55.84019000
119.30465698,-54.51401000
119.35234070,-55.08178000
119.40002441,-64.33160000
119.44770813,-70.64872000
119.49539185,-64.04195000
119.54307556,-63.21853000
119.59075928,-58.38309000
119.63844299,-60.07150000
119.68612671,-64.67757000
119.73381042,-58.71407000
119.78149414,-63.73168000
119.82917786,-61.58845000
119.87686157,-59.35766000
119.92454529,-68.24879000
119.97222900,-59.97167000
120.01991272,-55.42700000
120.06759644,-53.30772000
120.11528015,-56.50433000
120.16296387,-60.14395000
120.21064758,-59.11700000
120.25833130,-60.36392000
120.30601501,-64.07226000
120.35369873,-56.08623000
120.40138245,-60.03951000
120.44906616,-63.65794000
120.49674988,-57.88990000
120.54443359,-60.66805000
120.59211731,-66.79098000
120.63980103,-63.74319000
120.68748474,-57.28370000
120.73516846,-54.71099000
120.78285217,-50.76118000
120.83053589,-50.70055000
120.87821960,-56.68894000
120.92590332,-56.41830000
120.97358704,-56.84457000
121.02127075,-56.14302000
121.06895447,-58.07495000
121.11663818,-58.49411000
121.16432190,-61.02240000
121.21200562,-63.22548000
121.25968933,-57.89894000
121.30737305,-60.05618000
121.35505676,-57.50160000
121.40274048,-54.94063000
121.45042419,-59.30225000
121.49810791,-53.52524000
121.54579163,-53.34280000
121.59347534,-55.85702000
121.64115906,-56.26326000
121.68884277,-55.76747000
121.73652649,-61.39748000
121.78421021,-60.75338000
121.83189392,-54.59840000
121.87957764,-53.83331000
121.92726135,-60.04725000
121.97494507,-64.15448000
122.02262878,-58.56886000
122.07031250,-58.97040000
122.11799622,-55.34178000
122.16567993,-54.55618000
122.21336365,-59.94985000
122.26104736,-62.62682000
122.30873108,-66.22256000
122.35641479,-59.08734000
122.40409851,-68.33035000
122.45178223,-60.82193000
122.49946594,-64.04626000
122.54714966,-56.60536000
122.59483337,-51.85597000
122.64251709,-52.34524000
122.69020081,-58.68193000
122.73788452,-56.03877000
122.78556824,-56.27832000
122.83325195,-63.23050000
122.88093567,-63.90506000
122.92861938,-56.97405000
122.97630310,-65.59113000
123.02398682,-58.99256000
123.07167053,-57.95399000
123.11935425,-63.58168000
123.16703796,-64.13252000
123.21472168,-67.00490000
123.26240540,-61.22673000
123.31008911,-67.15672000
123.35777283,-54.72758000
123.40545654,-56.97975000
123.45314026,-57.45384000
123.50082397,-61.46334000
123.54850769,-53.24417000
123.59619141,-54.47185000
123.64387512,-58.60650000
123.69155884,-66.17215000
123.73924255,-75.75069000
123.78692627,-59.78918000
123.83460999,-65.47911000
123.88229370,-60.23890000
123.92997742,-73.42408000
123.97766113,-72.63242000
124.02534485,-55.89229000
124.07302856,-54.45116000
124.12071228,-61.56598000
124.16839600,-60.25599000
124.21607971,-56.49027000
124.26376343,-57.97998000
124.31144714,-58.96547000
124.35913086,-67.76886000
124.40681458,-53.73984000
124.45449829,-54.43404000
124.50218201,-59.17732000
124.54986572,-61.02268000
124.59754944,-58.02663000
124.64523315,-55.32992000
124.69291687,-61.16396000
124.74060059,-61.63156000
124.78828430,-54.77266000
124.83596802,-53.74057000
124.88365173,-60.55237000
124.93133545,-59.51450000
124.97901917,-56.81291000
125.02670288,-55.09812000
125.07438660,-53.45162000
125.12207031,-54.74517000
125.16975403,-75.83831000
125.21743774,-55.40932000
125.26512146,-53.35262000
125.31280518,-54.23693000
125.36048889,-56.37358000
125.40817261,-57.71656000
125.45585632,-56.68511000
125.50354004,-54.31293000
125.55122375,-53.82323000
125.59890747,-56.92019000
125.64659119,-51.74204000
125.69427490,-50.16996000
125.74195862,-49.67913000
125.78964233,-52.44974000
125.83732605,-53.82953000
125.88500977,-52.09739000
125.93269348,-55.83290000
125.98037720,-63.79896000
126.02806091,-55.64906000
126.07574463,-57.35883000
126.12342834,-60.99414000
126.17111206,-55.76390000
126.21879578,-53.54684000
126.26647949,-54.44832000
126.31416321,-56.70727000
126.36184692,-55.55838000
126.40953064,-53.96831000
126.45721436,-56.76567000
126.50489807,-71.34900000
126.55258179,-58.10964000
126.60026550,-55.23837000
126.64794922,-54.07725000
126.69563293,-56.66401000
126.74331665,-63.39441000
126.79100037,-58.06422000
126.83868408,-56.72328000
126.88636780,-55.02762000
126.93405151,-54.84529000
126.98173523,-53.23108000
127.02941895,-55.90420000
127.07710266,-56.97751000
127.12478638,-54.07095000
127.17247009,-50.88822000
127.22015381,-51.73258000
127.26783752,-53.47866000
127.31552124,-58.68937000
127.36320496,-58.09581000
127.41088867,-54.57520000
127.45857239,-62.12453000
127.50625610,-66.26863000
127.55393982,-56.40583000
127.60162354,-54.51182000
127.64930725,-56.08332000
127.69699097,-51.62548000
127.74467468,-48.32111000
127.79235840,-49.86643000
127.84004211,-53.84201000
127.88772583,-55.59323000
127.93540955,-53.04516000
127.98309326,-49.80454000
128.03077698,-51.23768000
128.07846069,-54.57863000
128.12614441,-51.68164000
128.17382813,-50.97192000
128.22151184,-51.19700000
128.26919556,-54.87688000
128.31687927,-55.40364000
128.36456299,-56.18393000
128.41224670,-60.76397000
128.45993042,-61.85708000
128.50761414,-58.37600000
128.55529785,-57.41646000
128.60298157,-54.19214000
128.65066528,-50.44101000
128.69834900,-50.38968000
128.74603271,-59.11431000
128.79371643,-67.22067000
128.84140015,-60.48088000
128.88908386,-60.70665000
128.93676758,-59.39207000
128.98445129,-57.92276000
129.03213501,-58.71816000
129.07981873,-62.28176000
129.12750244,-60.04354000
129.17518616,-57.83574000
129.22286987,-61.15622000
129.27055359,-59.64600000
129.31823730,-59.88270000
129.36592102,-56.43071000
129.41360474,-53.54905000
129.46128845,-54.36413000
129.50897217,-67.53236000
129.55665588,-55.02045000
129.60433960,-54.98163000
129.65202332,-61.18292000
129.69970703,-63.72389000
129.74739075,-78.65121000
129.79507446,-56.46423000
129.84275818,-53.74233000
129.89044189,-56.55034000
129.93812561,-53.61558000
129.98580933,-61.97525000
130.03349304,-57.28987000
130.08117676,-64.26967000
130.12886047,-58.87555000
130.17654419,-59.45938000
130.22422791,-58.39613000
130.27191162,-55.77582000
130.31959534,-51.98265000
130.36727905,-51.35012000
130.41496277,-52.58442000
130.46264648,-53.35158000
130.51033020,-63.14846000
130.55801392,-61.22488000
130.60569763,-59.26568000
130.65338135,-53.38407000
130.70106506,-52.91306000
130.74874878,-55.14757000
130.79643250,-57.36866000
130.84411621,-55.91838000
130.89179993,-65.14800000
130.93948364,-55.39333000
130.98716736,-52.70906000
131.03485107,-64.61284000
131.08253479,-58.02810000
131.13021851,-57.56773000
131.17790222,-56.53209000
131.22558594,-56.78000000
131.27326965,-66.28747000
131.32095337,-55.53133000
131.36863708,-52.74374000
131.41632080,-51.71516000
131.46400452,-52.85667000
131.51168823,-59.55482000
131.55937195,-54.34396000
131.60705566,-50.96259000
131.65473938,-53.50981000
131.70242310,-56.25252000
131.75010681,-50.87825000
131.79779053,-52.21150000
131.84547424,-61.66840000
131.89315796,-61.66144000
131.94084167,-62.12006000
131.98852539,-53.07328000
132.03620911,-52.30368000
132.08389282,-58.69125000
132.13157654,-56.57965000
132.17926025,-55.76934000
132.22694397,-64.64532000
132.27462769,-65.93823000
132.32231140,-63.62152000
132.36999512,-62.73674000
132.41767883,-63.17744000
132.46536255,-59.45415000
132.51304626,-58.42800000
132.56072998,-60.62194000
132.60841370,-56.46643000
132.65609741,-55.64565000
132.70378113,-52.94570000
132.75146484,-48.30732000
132.79914856,-49.93452000
132.84683228,-55.32624000
132.89451599,-62.79512000
132.94219971,-60.63862000
132.98988342,-67.46509000
133.03756714,-65.45448000
133.08525085,-63.80801000
133.13293457,-83.09165000
133.18061829,-79.12121000
133.22830200,-61.02167000
133.27598572,-59.01763000
133.32366943,-66.92983000
133.37135315,-64.64328000
133.41903687,-56.38781000
133.46672058,-52.29303000
133.51440430,-54.83641000
133.56208801,-53.54343000
133.60977173,-53.95252000
133.65745544,-59.34053000
133.70513916,-64.99475000
133.75282288,-67.41460000
133.80050659,-61.04989000
133.84819031,-55.93848000
133.89587402,-55.21494000
133.94355774,-56.20155000
133.99124146,-57.45296000
134.03892517,-56.72760000
134.08660889,-55.22272000
134.13429260,-54.94824000
134.18197632,-56.42516000
134.22966003,-58.61760000
134.27734375,-57.91420000
134.32502747,-51.93895000
134.37271118,-56.70358000
134.42039490,-53.72625000
134.46807861,-49.38755000
134.51576233,-50.37329000
134.56344604,-52.66897000
134.61112976,-58.02518000
134.65881348,-51.12070000
134.70649719,-52.05156000
134.75418091,-59.43554000
134.80186462,-68.22104000
134.84954834,-58.07894000
134.89723206,-57.80975000
134.94491577,-53.58720000
134.99259949,-55.21366000
135.04028320,-62.04959000
135.08796692,-66.45343000
135.13565063,-63.07288000
135.18333435,-64.29510000
135.23101807,-53.36261000
135.27870178,-52.39853000
135.32638550,-57.12039000
135.37406921,-64.38803000
135.42175293,-61.49249000
135.46943665,-60.77455000
135.51712036,-63.37586000
135.56480408,-69.97600000
135.61248779,-64.94514000
135.66017151,-58.46159000
135.70785522,-55.62635000
135.75553894,-57.31980000
135.80322266,-63.36047000
135.85090637,-61.46972000
135.89859009,-55.65798000
135.94627380,-62.02966000
135.99395752,-65.99425000
136.04164124,-64.28392000
136.08932495,-73.61885000
136.13700867,-68.14825000
136.18469238,-57.58501000
136.23237610,-52.26366000
136.28005981,-52.44157000
136.32774353,-59.38956000
136.37542725,-62.74142000
136.42311096,-58.04242000
136.47079468,-54.58410000
136.51847839,-52.89850000
136.56616211,-57.25296000
136.61384583,-61.45457000
136.66152954,-56.91797000
136.70921326,-53.30518000
136.75689697,-52.84820000
136.80458069,-55.48011000
136.85226440,-58.98598000
136.89994812,-59.78925000
136.94763184,-58.23164000
136.99531555,-57.32678000
137.04299927,-59.35941000
137.09068298,-52.85012000
137.13836670,-52.44275000
137.18605042,-61.64604000
137.23373413,-72.44254000
137.28141785,-55.03730000
137.32910156,-51.92472000
137.37678528,-55.62741000
137.42446899,-56.37893000
137.47215271,-53.19716000
137.51983643,-57.09381000
137.56752014,-67.92100000
137.61520386,-61.92324000
137.66288757,-54.45613000
137.71057129,-52.45169000
137.75825500,-53.14940000
137.80593872,-61.44806000
137.85362244,-66.44644000
137.90130615,-73.78145000
137.94898987,-60.12180000
137.99667358,-55.12647000
138.04435730,-57.44657000
138.09204102,-58.98365000
138.13972473,-61.61579000
138.18740845,-60.15374000
138.23509216,-61.16169000
138.28277588,-89.86141000
138.33045959,-60.22619000
138.37814331,-54.11166000
138.42582703,-53.96441000
138.47351074,-55.59980000
138.52119446,-67.08316000
138.56887817,-56.49829000
138.61656189,-58.07415000
138.66424561,-57.15039000
138.71192932,-59.15966000
138.75961304,-55.69490000
138.80729675,-61.77105000
138.85498047,-52.49668000
138.90266418,-48.09881000
138.95034790,-52.69123000
138.99803162,-67.99429000
139.04571533,-74.36103000
139.09339905,-59.39061000
139.14108276,-56.53919000
139.18876648,-59.47243000
139.23645020,-55.52384000
139.28413391,-51.42430000
139.33181763,-54.49675000
139.37950134,-67.18763000
139.42718506,-57.35149000
139.47486877,-58.51945000
139.52255249,-59.38198000
139.57023621,-63.24530000
139.61791992,-65.65946000
139.66560364,-62.60565000
139.71328735,-55.27631000
139.76097107,-52.54092000
139.80865479,-52.42713000
139.85633850,-53.30131000
139.90402222,-60.23328000
139.95170593,-57.40005000
139.99938965,-54.91217000
140.04707336,-61.34357000
140.09475708,-64.13996000
140.14244080,-56.75977000
140.19012451,-55.60891000
140.23780823,-56.12194000
140.28549194,-53.40820000
140.33317566,-53.58197000
140.38085938,-53.58139000
140.42854309,-52.63316000
140.47622681,-57.32797000
140.52391052,-57.03323000
140.57159424,-52.50021000
140.61927795,-55.03790000
140.66696167,-56.78524000
140.71464539,-59.32317000
140.76232910,-57.82172000
140.81001282,-55.89552000
140.85769653,-56.58440000
140.90538025,-55.74952000
140.95306396,-53.89376000
141.00074768,-51.78727000
141.04843140,-50.98042000
141.09611511,-55.44324000
141.14379883,-61.37137000
141.19148254,-54.91072000
141.23916626,-56.73179000
141.28684998,-58.05542000
141.33453369,-58.66858000
141.38221741,-58.89700000
141.42990112,-55.32572000
141.47758484,-54.77808000
141.52526855,-57.52247000
141.57295227,-55.99869000
141.62063599,-58.66416000
141.66831970,-56.43662000
141.71600342,-54.11753000
141.76368713,-55.63654000
141.81137085,-61.89320000
141.85905457,-61.52310000
141.90673828,-55.47623000
141.95442200,-65.15453000
142.00210571,-55.07633000
142.04978943,-50.48793000
142.09747314,-50.82495000
142.14515686,-51.43710000
142.19284058,-51.78477000
142.24052429,-56.00506000
142.28820801,-59.55676000
142.33589172,-65.76865000
142.38357544,-57.30407000
142.43125916,-60.18558000
142.47894287,-66.26414000
142.52662659,-61.18700000
142.57431030,-52.90463000
142.62199402,-53.46599000
142.66967773,-60.46400000
142.71736145,-59.28969000
142.76504517,-65.35501000
142.81272888,-62.30531000
142.86041260,-61.55545000
142.90809631,-53.93232000
142.95578003,-49.90422000
143.00346375,-47.05782000
143.05114746,-48.60408000
143.09883118,-54.04174000
143.14651489,-53.86282000
143.19419861,-52.58459000
143.24188232,-50.90248000
143.28956604,-51.67149000
143.33724976,-60.92591000
143.38493347,-62.71090000
143.43261719,-82.51312000
143.48030090,-58.47844000
143.52798462,-65.61385000
143.57566833,-58.04631000
143.62335205,-59.90419000
143.67103577,-53.12008000
143.71871948,-54.65862000
143.76640320,-61.36742000
143.81408691,-59.52959000
143.86177063,-56.09766000
143.90945435,-51.65603000
143.95713806,-51.23850000
144.00482178,-55.61081000
144.05250549,-60.08140000
144.10018921,-53.39442000
144.14787292,-55.36955000
144.19555664,-57.62194000
144.24324036,-56.31237000
144.29092407,-55.06139000
144.33860779,-55.07847000
144.38629150,-57.22546000
144.43397522,-55.24105000
144.48165894,-54.72915000
144.52934265,-55.22833000
144.57702637,-52.85350000
144.62471008,-55.58461000
144.67239380,-55.34348000
144.72007751,-54.35313000
144.76776123,-57.02976000
144.81544495,-51.39780000
144.86312866,-48.43050000
144.91081238,-49.80019000
144.95849609,-50.12870000
145.00617981,-51.66233000
145.05386353,-54.11460000
145.10154724,-53.03917000
145.14923096,-54.85267000
145.19691467,-55.68512000
145.24459839,-53.42430000
145.29228210,-56.43171000
145.33996582,-74.66922000
145.38764954,-57.52287000
145.43533325,-58.94979000
145.48301697,-67.91756000
145.53070068,-60.60005000
145.57838440,-64.97548000
145.62606812,-67.04260000
145.67375183,-61.91602000
145.72143555,-56.37045000
145.76911926,-55.44931000
145.81680298,-60.35359000
145.86448669,-55.74471000
145.91217041,-54.84097000
145.95985413,-54.34555000
146.00753784,-51.90057000
146.05522156,-52.27377000
146.10290527,-55.72252000
146.15058899,-56.83661000
146.19827271,-58.05445000
146.24595642,-53.17431000
146.29364014,-55.10692000
146.34132385,-60.12415000
146.38900757,-58.33797000
146.43669128,-56.80677000
146.48437500,-63.16262000
146.53205872,-56.18436000
146.57974243,-52.31430000
146.62742615,-54.56730000
146.67510986,-62.78777000
146.72279358,-58.35583000
146.77047729,-56.13308000
146.81816101,-57.55013000
146.86584473,-49.59211000
146.91352844,-46.85879000
146.96121216,-48.79037000
147.00889587,-57.47656000
147.05657959,-60.87395000
147.10426331,-55.45669000
147.15194702,-56.18340000
147.19963074,-61.08130000
147.24731445,-65.06670000
147.29499817,-72.91934000
147.34268188,-62.22871000
147.39036560,-57.85181000
147.43804932,-56.77346000
147.48573303,-53.24294000
147.53341675,-57.60094000
147.58110046,-66.30819000
147.62878418,-61.26959000
147.67646790,-58.72600000
147.72415161,-66.74659000
147.77183533,-59.57712000
147.81951904,-55.91180000
147.86720276,-55.16875000
147.91488647,-55.63715000
147.96257019,-57.28036000
148.01025391,-70.54620000
148.05793762,-52.37457000
148.10562134,-52.38404000
148.15330505,-58.05061000
148.20098877,-60.01622000
148.24867249,-53.36833000
148.29635620,-55.28224000
148.34403992,-57.58517000
148.39172363,-54.22515000
148.43940735,-49.01900000
148.48709106,-52.44434000
148.53477478,-72.38885000
148.58245850,-59.34179000
148.63014221,-63.35086000
148.67782593,-56.55204000
148.72550964,-58.31553000
148.77319336,-60.65462000
148.82087708,-73.08412000
148.86856079,-57.51443000
148.91624451,-63.55906000
148.96392822,-60.37784000
149.01161194,-61.71770000
149.05929565,-58.11708000
149.10697937,-57.01473000
149.15466309,-60.29222000
149.20234680,-61.75724000
149.25003052,-62.67687000
149.29771423,-65.18213000
149.34539795,-67.76305000
149.39308167,-62.46279000
149.44076538,-58.84430000
149.48844910,-54.61349000
149.53613281,-63.84043000
149.58381653,-53.96849000
149.63150024,-50.86814000
149.67918396,-56.18868000
149.72686768,-60.60629000
149.77455139,-62.82360000
149.82223511,-58.59949000
149.86991882,-62.84031000
149.91760254,-62.61366000
149.96528625,-54.54180000
150.01296997,-58.58347000
150.06065369,-66.15704000
150.10833740,-58.85312000
150.15602112,-69.05486000
150.20370483,-64.17708000
150.25138855,-60.82722000
150.29907227,-61.80881000
150.34675598,-61.36261000
150.39443970,-59.98016000
150.44212341,-59.36964000
150.48980713,-57.60016000
150.53749084,-60.28034000
150.58517456,-59.84517000
150.63285828,-57.89074000
150.68054199,-57.32409000
150.72822571,-60.76162000
150.77590942,-64.27912000
150.82359314,-61.18687000
150.87127686,-63.77250000
150.91896057,-53.92639000
150.96664429,-60.00660000
151.01432800,-55.32494000
151.06201172,-55.19329000
151.10969543,-68.38290000
151.15737915,-62.39985000
151.20506287,-58.71456000
151.25274658,-66.68725000
151.30043030,-80.42316000
151.34811401,-74.97937000
151.39579773,-60.25886000
151.44348145,-55.64350000
151.49116516,-58.96003000
151.53884888,-59.67311000
151.58653259,-56.15729000
151.63421631,-63.72332000
151.68190002,-65.22015000
151.72958374,-60.33865000
151.77726746,-51.05808000
151.82495117,-49.63337000
151.87263489,-51.47511000
151.92031860,-52.60700000
151.96800232,-51.11372000
152.01568604,-47.47403000
152.06336975,-46.61858000
152.11105347,-51.03112000
152.15873718,-63.09415000
152.20642090,-53.33689000
152.25410461,-54.01139000
152.30178833,-60.77523000
152.34947205,-67.02048000
152.39715576,-53.03570000
152.44483948,-50.76907000
152.49252319,-54.16216000
152.54020691,-67.82559000
152.58789063,-55.74504000
152.63557434,-56.01675000
152.68325806,-59.70398000
152.73094177,-54.39144000
152.77862549,-54.91154000
152.82630920,-56.03607000
152.87399292,-63.06723000
152.92167664,-59.68468000
152.96936035,-56.34077000
153.01704407,-55.60898000
153.06472778,-52.27943000
153.11241150,-53.77422000
153.16009521,-64.40677000
153.20777893,-66.56696000
153.25546265,-67.36073000
153.30314636,-70.05034000
153.35083008,-64.16146000
153.39851379,-57.35492000
153.44619751,-58.27114000
153.49388123,-60.14400000
153.54156494,-56.70506000
153.58924866,-58.28870000
153.63693237,-61.24693000
153.68461609,-57.16928000
153.73229980,-53.59493000
153.77998352,-57.78764000
153.82766724,-57.85054000
153.87535095,-50.00945000
153.92303467,-47.95209000
153.97071838,-49.33466000
154.01840210,-55.58897000
154.06608582,-55.90202000
154.11376953,-52.97468000
154.16145325,-48.42423000
154.20913696,-50.25947000
154.25682068,-54.92205000
154.30450439,-60.73464000
154.35218811,-62.52656000
154.39987183,-53.29755000
154.44755554,-54.06852000
154.49523926,-55.10436000
154.54292297,-55.34163000
154.59060669,-58.71948000
154.63829041,-61.32703000
154.68597412,-58.18587000
154.73365784,-70.90305000
154.78134155,-57.35037000
154.82902527,-59.10206000
154.87670898,-51.99651000
154.92439270,-49.72610000
154.97207642,-55.37146000
155.01976013,-66.12435000
155.06744385,-62.69116000
155.11512756,-55.31088000
155.16281128,-57.61759000
155.21049500,-66.41297000
155.25817871,-71.18928000
155.30586243,-57.47427000
155.35354614,-54.23687000
155.40122986,-53.16527000
155.44891357,-54.23112000
155.49659729,-63.99417000
155.54428101,-66.12833000
155.59196472,-58.49676000
155.63964844,-54.01641000
155.68733215,-54.30926000
155.73501587,-63.87747000
155.78269958,-60.33577000
155.83038330,-65.90869000
155.87806702,-59.09367000
155.92575073,-56.27092000
155.97343445,-63.55890000
156.02111816,-66.82014000
156.06880188,-63.37688000
156.11648560,-63.09228000
156.16416931,-57.43599000
156.21185303,-57.04254000
156.25953674,-54.79705000
156.30722046,-52.85789000
156.35490417,-52.62181000
156.40258789,-52.50593000
156.45027161,-55.83347000
156.49795532,-61.65514000
156.54563904,-55.74172000
156.59332275,-51.85986000
156.64100647,-55.30155000
156.68869019,-64.58369000
156.73637390,-51.50512000
156.78405762,-52.57044000
156.83174133,-53.72528000
156.87942505,-55.64074000
156.92710876,-68.72019000
156.97479248,-58.35470000
157.02247620,-55.71499000
157.07015991,-53.68230000
157.11784363,-55.63259000
157.16552734,-66.64658000
157.21321106,-59.87592000
157.26089478,-60.58111000
157.30857849,-74.89142000
157.35626221,-60.75741000
157.40394592,-56.45832000
157.45162964,-61.17725000
157.49931335,-81.12376000
157.54699707,-58.41486000
157.59468079,-53.30042000
157.64236450,-53.94386000
157.69004822,-60.85482000
157.73773193,-63.96583000
157.78541565,-51.80692000
157.83309937,-50.61379000
157.88078308,-57.81891000
157.92846680,-61.90679000
157.97615051,-51.40871000
158.02383423,-49.74621000
158.07151794,-52.75864000
158.11920166,-61.97160000
158.16688538,-62.14726000
158.21456909,-56.45686000
158.26225281,-56.61335000
158.30993652,-61.76877000
158.35762024,-59.40323000
158.40530396,-56.81915000
158.45298767,-62.87003000
158.50067139,-56.31482000
158.54835510,-53.80177000
158.59603882,-50.73586000
158.64372253,-55.76536000
158.69140625,-65.94513000
158.73908997,-58.96968000
158.78677368,-54.45557000
158.83445740,-52.40425000
158.88214111,-52.39266000
158.92982483,-59.05948000
158.97750854,-63.04914000
159.02519226,-61.49893000
159.07287598,-59.53577000
159.12055969,-59.01245000
159.16824341,-59.97091000
159.21592712,-58.00972000
159.26361084,-57.44421000
159.31129456,-58.64530000
159.35897827,-55.13044000
159.40666199,-54.84903000
159.45434570,-60.07925000
159.50202942,-68.46291000
159.54971313,-55.36691000
159.59739685,-56.61066000
159.64508057,-55.62972000
159.69276428,-50.96895000
159.74044800,-54.45794000
159.78813171,-56.02620000
159.83581543,-55.93130000
159.88349915,-54.12725000
159.93118286,-53.50510000
159.97886658,-61.08326000
160.02655029,-75.09026000
160.07423401,-63.23280000
160.12191772,-63.49350000
160.16960144,-65.98439000
160.21728516,-63.55026000
160.26496887,-57.40274000
160.31265259,-56.27916000
160.36033630,-61.00199000
160.40802002,-67.28289000
160.45570374,-68.68945000
160.50338745,-61.00059000
160.55107117,-55.45426000
160.59875488,-60.61470000
160.64643860,-66.03722000
160.69412231,-57.80964000
160.74180603,-56.84179000
160.78948975,-59.59329000
160.83717346,-56.37337000
160.88485718,-59.23020000
160.93254089,-59.49970000
160.98022461,-56.40887000
161.02790833,-63.55228000
161.07559204,-65.79688000
161.12327576,-57.39690000
161.17095947,-53.71194000
161.21864319,-52.95900000
161.26632690,-52.52747000
161.31401062,-57.05952000
161.36169434,-56.49580000
161.40937805,-54.87348000
161.45706177,-65.29385000
161.50474548,-59.41478000
161.55242920,-55.50603000
161.60011292,-51.87653000
161.64779663,-52.60964000
161.69548035,-54.65924000
161.74316406,-55.54947000
161.79084778,-54.46914000
161.83853149,-57.89240000
161.88621521,-74.08720000
161.93389893,-58.60609000
161.98158264,-52.14684000
162.02926636,-53.85953000
162.07695007,-59.26508000
162.12463379,-53.20958000
162.17231750,-50.75988000
162.22000122,-54.01290000
162.26768494,-55.55855000
162.31536865,-55.25245000
162.36305237,-56.55910000
162.41073608,-54.60266000
162.45841980,-53.66881000
162.50610352,-56.81140000
162.55378723,-57.86891000
162.60147095,-64.75475000
162.64915466,-56.21244000
162.69683838,-54.26781000
162.74452209,-62.75280000
162.79220581,-68.18700000
162.83988953,-57.93496000
162.88757324,-54.57542000
162.93525696,-56.03040000
162.98294067,-60.52400000
163.03062439,-64.48425000
163.07830811,-53.92375000
163.12599182,-51.68592000
163.17367554,-53.16792000
163.22135925,-55.34089000
163.26904297,-58.49159000
163.31672668,-64.32889000
163.36441040,-64.06565000
163.41209412,-68.41281000
163.45977783,-64.26939000
163.50746155,-63.73692000
163.55514526,-61.19338000
163.60282898,-54.87943000
163.65051270,-54.60117000
163.69819641,-57.18246000
163.74588013,-57.90443000
163.79356384,-61.09184000
163.84124756,-65.91134000
163.88893127,-64.84125000
163.93661499,-57.87257000
163.98429871,-56.36153000
164.03198242,-60.15032000
164.07966614,-62.58359000
164.12734985,-64.30604000
164.17503357,-58.22859000
164.22271729,-58.22094000
164.27040100,-53.77480000
164.31808472,-52.68432000
164.36576843,-59.85313000
164.41345215,-56.22124000
164.46113586,-52.57674000
164.50881958,-52.15061000
164.55650330,-56.92308000
164.60418701,-60.96521000
164.65187073,-56.62595000
164.69955444,-53.97011000
164.74723816,-54.25602000
164.79492188,-63.77447000
164.84260559,-60.62229000
164.89028931,-60.17075000
164.93797302,-65.46950000
164.98565674,-81.78465000
165.03334045,-65.34623000
165.08102417,-56.48172000
165.12870789,-54.46184000
165.17639160,-58.33534000
165.22407532,-69.26128000
165.27175903,-61.64060000
165.31944275,-63.10837000
165.36712646,-58.72011000
165.41481018,-60.96689000
165.46249390,-57.96238000
165.51017761,-52.52182000
165.55786133,-58.35615000
165.60554504,-60.94873000
165.65322876,-55.34723000
165.70091248,-57.58466000
165.74859619,-56.67213000
165.79627991,-61.19104000
165.84396362,-54.13988000
165.89164734,-54.60840000
165.93933105,-61.71025000
165.98701477,-70.23240000
166.03469849,-53.84916000
166.08238220,-52.49257000
166.13006592,-54.24886000
166.17774963,-61.39338000
166.22543335,-60.97974000
166.27311707,-55.78805000
166.32080078,-60.64915000
166.36848450,-59.50962000
166.41616821,-55.06436000
166.46385193,-58.18385000
166.51153564,-57.16254000
166.55921936,-52.25576000
166.60690308,-51.92937000
166.65458679,-52.34493000
166.70227051,-52.05759000
166.74995422,-55.04970000
166.79763794,-57.15495000
166.84532166,-63.65852000
166.89300537,-61.90987000
166.94068909,-60.44266000
166.98837280,-58.34038000
167.03605652,-54.32798000
167.08374023,-55.88174000
167.13142395,-64.10403000
167.17910767,-69.09048000
167.22679138,-66.59911000
167.27447510,-64.40536000
167.32215881,-58.43363000
167.36984253,-49.98711000
167.41752625,-49.49094000
167.46520996,-53.50440000
167.51289368,-62.31829000
167.56057739,-67.50565000
167.60826111,-59.61219000
167.65594482,-56.88325000
167.70362854,-58.53877000
167.75131226,-54.84049000
167.79899597,-56.00336000
167.84667969,-60.78711000
167.89436340,-66.20001000
167.94204712,-63.14207000
167.98973083,-59.72998000
168.03741455,-57.49638000
168.08509827,-63.09872000
168.13278198,-60.61520000
168.18046570,-59.22215000
168.22814941,-61.99818000
168.27583313,-57.22683000
168.32351685,-58.58997000
168.37120056,-55.31268000
168.41888428,-50.57609000
168.46656799,-49.19809000
168.51425171,-50.67688000
168.56193542,-52.65692000
168.60961914,-55.00748000
168.65730286,-56.06117000
168.70498657,-59.20933000
168.75267029,-59.32169000
168.80035400,-69.93202000
168.84803772,-57.70737000
168.89572144,-60.28655000
168.94340515,-58.38650000
168.99108887,-57.63638000
169.03877258,-54.12203000
169.08645630,-50.80967000
169.13414001,-51.63570000
169.18182373,-56.25924000
169.22950745,-61.82783000
169.27719116,-69.52690000
169.32487488,-65.20575000
169.37255859,-61.72216000
169.42024231,-68.34187000
169.46792603,-62.49254000
169.51560974,-57.55335000
169.56329346,-55.46371000
169.61097717,-61.47326000
169.65866089,-61.55384000
169.70634460,-61.65282000
169.75402832,-53.99764000
169.80171204,-56.98608000
169.84939575,-63.83921000
169.89707947,-53.70944000
169.94476318,-51.74682000
169.99244690,-52.57357000
170.04013062,-55.76595000
170.08781433,-56.47815000
170.13549805,-56.00033000
170.18318176,-55.81772000
170.23086548,-57.46371000
170.27854919,-60.72033000
170.32623291,-52.79944000
170.37391663,-54.10151000
170.42160034,-61.26791000
170.46928406,-57.10026000
170.51696777,-52.40451000
170.56465149,-53.48211000
170.61233521,-53.86580000
170.66001892,-53.96003000
170.70770264,-58.68716000
170.75538635,-56.30534000
170.80307007,-51.90453000
170.85075378,-53.06366000
170.89843750,-60.64979000
170.94612122,-56.15549000
170.99380493,-65.73678000
171.04148865,-56.96763000
171.08917236,-53.23675000
171.13685608,-50.49534000
171.18453979,-54.22044000
171.23222351,-54.20227000
171.27990723,-53.25275000
171.32759094,-54.09607000
171.37527466,-59.89782000
171.42295837,-57.02211000
171.47064209,-52.77475000
171.51832581,-57.15609000
171.56600952,-56.05505000
171.61369324,-63.24970000
171.66137695,-55.46548000
171.70906067,-52.34273000
171.75674438,-51.69923000
171.80442810,-53.44730000
171.85211182,-61.98059000
171.89979553,-61.19180000
171.94747925,-59.00527000
171.99516296,-60.51049000
172.04284668,-62.69247000
172.09053040,-64.42222000
172.13821411,-60.84637000
172.18589783,-62.50283000
172.23358154,-62.17583000
172.28126526,-58.41565000
172.32894897,-55.45900000
172.37663269,-55.10457000
172.42431641,-50.16920000
172.47200012,-53.96666000
172.51968384,-55.93910000
172.56736755,-52.54419000
172.61505127,-51.74508000
172.66273499,-55.27176000
172.71041870,-63.19425000
172.75810242,-69.17500000
172.80578613,-60.94535000
172.85346985,-53.15145000
172.90115356,-51.40710000
172.94883728,-52.09216000
172.99652100,-53.33496000
173.04420471,-51.05497000
173.09188843,-50.62401000
173.13957214,-53.55510000
173.18725586,-53.27799000
173.23493958,-51.12506000
173.28262329,-53.08287000
173.33030701,-69.65637000
173.37799072,-57.78053000
173.42567444,-60.92634000
173.47335815,-52.09784000
173.52104187,-59.96931000
173.56872559,-67.67544000
173.61640930,-57.57191000
173.66409302,-53.37063000
173.71177673,-57.78753000
173.75946045,-75.70655000
173.80714417,-58.06391000
173.85482788,-57.10083000
173.90251160,-64.74506000
173.95019531,-70.13068000
173.99787903,-65.41360000
174.04556274,-64.23529000
174.09324646,-62.35562000
174.14093018,-63.37215000
174.18861389,-61.84477000
174.23629761,-59.01928000
174.28398132,-60.65395000
174.33166504,-59.94315000
174.37934875,-58.26979000
174.42703247,-60.38221000
174.47471619,-67.89285000
174.52239990,-57.47787000
174.57008362,-52.57526000
174.61776733,-53.85537000
174.66545105,-54.92355000
174.71313477,-57.67004000
174.76081848,-69.08270000
174.80850220,-60.59595000
174.85618591,-58.42359000
174.90386963,-57.13187000
174.95155334,-58.06110000
174.99923706,-55.74616000
175.04692078,-53.62558000
175.09460449,-55.67026000
175.14228821,-58.82465000
175.18997192,-58.35999000
175.23765564,-56.17606000
175.28533936,-53.20102000
175.33302307,-54.74666000
175.38070679,-58.28355000
175.42839050,-59.22471000
175.47607422,-58.69629000
175.52375793,-65.72501000
175.57144165,-56.82983000
175.61912537,-55.00862000
175.66680908,-61.81424000
175.71449280,-56.12366000
175.76217651,-52.62400000
175.80986023,-57.73395000
175.85754395,-61.25873000
175.90522766,-57.35127000
175.95291138,-60.73041000
176.00059509,-53.80354000
176.04827881,-55.08168000
176.09596252,-70.45740000
176.14364624,-60.63631000
176.19132996,-55.76134000
176.23901367,-61.86243000
176.28669739,-58.78824000
176.33438110,-59.53529000
176.38206482,-59.77291000
176.42974854,-63.01503000
176.47743225,-60.95557000
176.52511597,-59.48065000
176.57279968,-59.11623000
176.62048340,-68.64177000
176.66816711,-56.27840000
176.71585083,-58.68378000
176.76353455,-56.89647000
176.81121826,-53.82321000
176.85890198,-56.22846000
176.90658569,-57.05071000
176.95426941,-70.42385000
177.00195313,-78.35910000
177.04963684,-61.75226000
177.09732056,-58.64609000
177.14500427,-67.37105000
177.19268799,-67.57544000
177.24037170,-62.75928000
177.28805542,-64.42892000
177.33573914,-57.33696000
177.38342285,-55.00095000
177.43110657,-57.09502000
177.47879028,-62.84191000
177.52647400,-65.42973000
177.57415771,-78.22086000
177.62184143,-65.68520000
177.66952515,-54.30787000
177.71720886,-52.98080000
177.76489258,-59.69382000
177.81257629,-62.70849000
177.86026001,-59.70345000
177.90794373,-59.64305000
177.95562744,-61.31066000
178.00331116,-63.94450000
178.05099487,-66.34957000
178.09867859,-52.36572000
178.14636230,-51.85465000
178.19404602,-61.82005000
178.24172974,-57.29126000
178.28941345,-69.14502000
178.33709717,-60.08476000
178.38478088,-59.67743000
178.43246460,-66.37209000
178.48014832,-69.01678000
178.52783203,-71.59962000
178.57551575,-65.50655000
178.62319946,-75.43094000
178.67088318,-56.27670000
178.71856689,-51.82170000
178.76625061,-53.30805000
178.81393433,-67.59455000
178.86161804,-59.57174000
178.90930176,-59.62456000
178.95698547,-75.73518000
179.00466919,-62.58414000
179.05235291,-59.81853000
179.10003662,-64.38892000
179.14772034,-67.27229000
179.19540405,-74.32623000
179.24308777,-60.68134000
179.29077148,-67.42525000
179.33845520,-70.03333000
179.38613892,-67.41872000
179.43382263,-64.42728000
179.48150635,-60.27485000
179.52919006,-53.75840000
179.57687378,-56.22915000
179.62455750,-61.44160000
179.67224121,-53.55746000
179.71992493,-59.81267000
179.76760864,-63.60218000
179.81529236,-65.16695000
179.86297607,-63.24735000
179.91065979,-57.57841000
179.95834351,-56.76715000
180.00602722,-56.22301000
180.05371094,-51.72729000
180.10139465,-55.65215000
180.14907837,-70.23955000
180.19676208,-65.56611000
180.24444580,-65.11533000
180.29212952,-57.55152000
180.33981323,-56.16741000
180.38749695,-59.82509000
180.43518066,-58.27038000
180.48286438,-57.41020000
180.53054810,-54.35606000
180.57823181,-54.12635000
180.62591553,-68.12197000
180.67359924,-54.02267000
180.72128296,-54.07739000
180.76896667,-63.38994000
180.81665039,-60.99548000
180.86433411,-57.94516000
180.91201782,-53.50592000
180.95970154,-50.76781000
181.00738525,-49.05569000
181.05506897,-53.15295000
181.10275269,-65.38166000
181.15043640,-56.64726000
181.19812012,-57.49810000
181.24580383,-56.16135000
181.29348755,-58.85669000
181.34117126,-63.19735000
181.38885498,-61.45596000
181.43653870,-60.63520000
181.48422241,-58.00446000
181.53190613,-54.70655000
181.57958984,-61.73473000
181.62727356,-64.15325000
181.67495728,-64.34173000
181.72264099,-67.29539000
181.77032471,-67.04642000
181.81800842,-66.24148000
181.86569214,-78.30997000
181.91337585,-61.06802000
181.96105957,-58.38486000
182.00874329,-53.16351000
182.05642700,-53.66921000
182.10411072,-53.82887000
182.15179443,-58.46453000
182.19947815,-62.31657000
182.24716187,-54.46815000
182.29484558,-56.22466000
182.34252930,-54.55500000
182.39021301,-59.40264000
182.43789673,-61.44200000
182.48558044,-59.52805000
182.53326416,-64.22838000
182.58094788,-57.85138000
182.62863159,-60.47249000
182.67631531,-61.04595000
182.72399902,-58.77418000
182.77168274,-63.40248000
182.81936646,-56.20515000
182.86705017,-54.78379000
182.91473389,-57.23490000
182.96241760,-57.44062000
183.01010132,-58.11129000
183.05778503,-52.76722000
183.10546875,-53.49161000
183.15315247,-53.91865000
183.20083618,-54.49275000
183.24851990,-60.22797000
183.29620361,-66.05150000
183.34388733,-58.45782000
183.39157104,-60.76770000
183.43925476,-63.26831000
183.48693848,-60.17952000
183.53462219,-55.09914000
183.58230591,-52.37839000
183.62998962,-50.01068000
183.67767334,-49.72447000
183.72535706,-51.60793000
183.77304077,-56.69230000
183.82072449,-64.30196000
183.86840820,-65.18202000
183.91609192,-61.70455000
183.96377563,-74.18311000
184.01145935,-61.04218000
184.05914307,-65.82104000
184.10682678,-57.96609000
184.15451050,-53.32337000
184.20219421,-51.49091000
184.24987793,-57.03050000
184.29756165,-62.44167000
184.34524536,-67.47599000
184.39292908,-61.83215000
184.44061279,-58.01226000
184.48829651,-60.41096000
184.53598022,-65.50217000
184.58366394,-65.03387000
184.63134766,-72.25038000
184.67903137,-56.68962000
184.72671509,-52.93993000
184.77439880,-51.39920000
184.82208252,-52.87472000
184.86976624,-56.81857000
184.91744995,-58.75922000
184.96513367,-53.50181000
185.01281738,-56.86213000
185.06050110,-62.57734000
185.10818481,-56.88233000
185.15586853,-55.98827000
185.20355225,-64.07437000
185.25123596,-60.48219000
185.29891968,-62.75217000
185.34660339,-59.15572000
185.39428711,-55.92241000
185.44197083,-59.94084000
185.48965454,-56.35891000
185.53733826,-59.92709000
185.58502197,-52.96902000
185.63270569,-57.62160000
185.68038940,-62.13212000
185.72807312,-63.54134000
185.77575684,-58.96478000
185.82344055,-54.68331000
185.87112427,-61.44326000
185.91880798,-62.97057000
185.96649170,-59.29462000
186.01417542,-54.64593000
186.06185913,-56.09568000
186.10954285,-58.10886000
186.15722656,-55.84217000
186.20491028,-57.88377000
186.25259399,-63.44633000
186.30027771,-62.52033000
186.34796143,-52.86430000
186.39564514,-51.35929000
186.44332886,-54.02109000
186.49101257,-57.81401000
186.53869629,-55.68809000
186.58638000,-54.45603000
186.63406372,-50.67052000
186.68174744,-51.92402000
186.72943115,-56.13405000
186.77711487,-51.84566000
186.82479858,-47.85487000
186.87248230,-46.37849000
186.92016602,-48.50291000
186.96784973,-56.74947000
187.01553345,-54.96184000
187.06321716,-62.13987000
187.11090088,-56.28175000
187.15858459,-55.82455000
187.20626831,-56.96749000
187.25395203,-71.16605000
187.30163574,-62.53349000
187.34931946,-56.55175000
187.39700317,-55.12215000
187.44468689,-58.97960000
187.49237061,-63.00093000
187.54005432,-60.91423000
187.58773804,-60.47867000
187.63542175,-55.15416000
187.68310547,-53.28998000
187.73078918,-62.58215000
187.77847290,-55.78461000
187.82615662,-54.92344000
187.87384033,-60.57641000
187.92152405,-57.54192000
187.96920776,-57.76415000
188.01689148,-58.53308000
188.06457520,-59.64786000
188.11225891,-56.21145000
188.15994263,-55.41106000
188.20762634,-55.25164000
188.25531006,-56.40659000
188.30299377,-57.58575000
188.35067749,-57.32819000
188.39836121,-52.83573000
188.44604492,-52.06562000
188.49372864,-58.84864000
188.54141235,-60.95410000
188.58909607,-53.29507000
188.63677979,-55.53142000
188.68446350,-62.46735000
188.73214722,-57.95385000
188.77983093,-53.33754000
188.82751465,-54.11300000
188.87519836,-56.83126000
188.92288208,-53.68934000
188.97056580,-54.89322000
189.01824951,-58.63198000
189.06593323,-68.94067000
189.11361694,-61.42363000
189.16130066,-68.10799000
189.20898438,-68.07030000
189.25666809,-63.13107000
189.30435181,-65.74199000
189.35203552,-55.49401000
189.39971924,-54.11552000
189.44740295,-58.10875000
189.49508667,-64.10792000
189.54277039,-62.50814000
189.59045410,-63.83329000
189.63813782,-57.72339000
189.68582153,-62.35811000
189.73350525,-66.12258000
189.78118896,-57.27137000
189.82887268,-53.62865000
189.87655640,-58.99845000
189.92424011,-65.26967000
189.97192383,-73.70489000
190.01960754,-62.97789000
190.06729126,-55.66576000
190.11497498,-54.38734000
190.16265869,-58.97698000
190.21034241,-66.51336000
190.25802612,-64.80219000
190.30570984,-57.34188000
190.35339355,-57.03462000
190.40107727,-61.21996000
190.44876099,-79.44528000
190.49644470,-57.55103000
190.54412842,-62.92604000
190.59181213,-65.78764000
190.63949585,-59.06715000
190.68717957,-53.20876000
190.73486328,-57.08195000
190.78254700,-62.97141000
190.83023071,-54.18600000
190.87791443,-57.31300000
190.92559814,-62.17923000
190.97328186,-65.46897000
191.02096558,-60.85464000
191.06864929,-54.10815000
191.11633301,-53.93187000
191.16401672,-57.02850000
191.21170044,-59.89146000
191.25938416,-56.15993000
191.30706787,-55.14704000
191.35475159,-55.67810000
191.40243530,-55.27296000
191.45011902,-60.28326000
191.49780273,-64.61359000
191.54548645,-56.45210000
191.59317017,-57.04065000
191.64085388,-52.79296000
191.68853760,-56.02514000
191.73622131,-65.76915000
191.78390503,-60.10862000
191.83158875,-66.48907000
191.87927246,-65.36798000
191.92695618,-68.95364000
191.97463989,-61.62222000
192.02232361,-55.83817000
192.07000732,-54.30298000
192.11769104,-59.32041000
192.16537476,-61.03543000
192.21305847,-55.42545000
192.26074219,-55.14757000
192.30842590,-57.52386000
192.35610962,-62.29993000
192.40379333,-61.40482000
192.45147705,-58.54830000
192.49916077,-57.93633000
192.54684448,-56.14956000
192.59452820,-50.87066000
192.64221191,-50.68516000
192.68989563,-55.03767000
192.73757935,-58.04465000
192.78526306,-60.88961000
192.83294678,-57.26635000
192.88063049,-59.22616000
192.92831421,-59.20272000
192.97599792,-62.03551000
193.02368164,-78.90942000
193.07136536,-58.63070000
193.11904907,-52.56868000
193.16673279,-53.83004000
193.21441650,-60.51640000
193.26210022,-61.11375000
193.30978394,-64.39733000
193.35746765,-59.46406000
193.40515137,-54.64259000
193.45283508,-56.29108000
193.50051880,-59.96929000
193.54820251,-59.75538000
193.59588623,-52.56952000
193.64356995,-55.36261000
193.69125366,-67.75574000
193.73893738,-60.02559000
193.78662109,-64.65599000
193.83430481,-55.47357000
193.88198853,-58.34805000
193.92967224,-57.83842000
193.97735596,-51.39083000
194.02503967,-53.24408000
194.07272339,-56.94054000
194.12040710,-52.97823000
194.16809082,-53.08241000
194.21577454,-55.69467000
194.26345825,-60.45435000
194.31114197,-64.26084000
194.35882568,-61.73668000
194.40650940,-59.54465000
194.45419312,-56.62131000
194.50187683,-53.63401000
194.54956055,-52.74614000
194.59724426,-53.48352000
194.64492798,-55.79417000
194.69261169,-56.15837000
194.74029541,-57.75230000
194.78797913,-78.77492000
194.83566284,-88.25227000
194.88334656,-60.03069000
194.93103027,-64.92746000
194.97871399,-55.08142000
195.02639771,-50.29194000
195.07408142,-56.04334000
195.12176514,-58.78185000
195.16944885,-65.86778000
195.21713257,-53.63534000
195.26481628,-56.33129000
