Frequency,Channel B
(kHz),(dBu)

0.00000000,-30.37827000
0.04768372,-37.59644000
0.09536743,-55.24637000
0.14305115,-45.53537000
0.19073486,-45.87404000
0.23841858,-50.41639000
0.28610229,-50.92883000
0.33378601,-51.60577000
0.38146973,-53.23796000
0.42915344,-48.95909000
0.47683716,-45.70316000
0.52452087,-48.84045000
0.57220459,-58.52542000
0.61988831,-55.20332000
0.66757202,-49.85724000
0.71525574,-52.09921000
0.76293945,-67.84963000
0.81062317,-50.97446000
0.85830688,-51.38623000
0.90599060,-55.96959000
0.95367432,-57.28569000
1.00135803,-57.87344000
1.04904175,-56.99339000
1.09672546,-56.98417000
1.14440918,-53.44646000
1.19209290,-49.19484000
1.23977661,-50.83399000
1.28746033,-62.77847000
1.33514404,-55.38290000
1.38282776,-57.11863000
1.43051147,-58.92741000
1.47819519,-53.91367000
1.52587891,-56.76281000
1.57356262,-60.61903000
1.62124634,-71.28539000
1.66893005,-61.33886000
1.71661377,-57.32991000
1.76429749,-53.06802000
1.81198120,-51.46498000
1.85966492,-50.57834000
1.90734863,-53.70344000
1.95503235,-58.62138000
2.00271606,-58.86433000
2.05039978,-59.71167000
2.09808350,-64.54406000
2.14576721,-59.64529000
2.19345093,-55.88811000
2.24113464,-56.22571000
2.28881836,-57.04794000
2.33650208,-59.00548000
2.38418579,-58.37379000
2.43186951,-52.65604000
2.47955322,-54.41296000
2.52723694,-54.77632000
2.57492065,-59.03563000
2.62260437,-57.38908000
2.67028809,-51.30632000
2.71797180,-53.27068000
2.76565552,-57.86820000
2.81333923,-53.21279000
2.86102295,-54.86767000
2.90870667,-58.63987000
2.95639038,-70.20256000
3.00407410,-66.12281000
3.05175781,-73.29021000
3.09944153,-59.53142000
3.14712524,-52.76965000
3.19480896,-50.22739000
3.24249268,-49.95371000
3.29017639,-52.42306000
3.33786011,-63.51801000
3.38554382,-54.13064000
3.43322754,-53.26878000
3.48091125,-60.46711000
3.52859497,-50.42042000
3.57627869,-51.17569000
3.62396240,-51.16486000
3.67164612,-48.80067000
3.71932983,-50.47711000
3.76701355,-52.17831000
3.81469727,-54.39387000
3.86238098,-82.87422000
3.91006470,-53.48468000
3.95774841,-55.17481000
4.00543213,-56.98897000
4.05311584,-53.74544000
4.10079956,-57.96291000
4.14848328,-59.51019000
4.19616699,-53.97520000
4.24385071,-55.41936000
4.29153442,-56.44085000
4.33921814,-54.82994000
4.38690186,-76.00201000
4.43458557,-57.01591000
4.48226929,-56.82275000
4.52995300,-52.23425000
4.57763672,-49.88074000
4.62532043,-57.28216000
4.67300415,-53.14621000
4.72068787,-50.18088000
4.76837158,-49.12286000
4.81605530,-56.98006000
4.86373901,-53.10040000
4.91142273,-68.53539000
4.95910645,-61.47106000
5.00679016,-65.58297000
5.05447388,-52.09385000
5.10215759,-49.57683000
5.14984131,-45.86182000
5.19752502,-51.23268000
5.24520874,-52.55568000
5.29289246,-56.10820000
5.34057617,-49.72130000
5.38825989,-63.26515000
5.43594360,-81.85258000
5.48362732,-52.50117000
5.53131104,-54.97926000
5.57899475,-64.22617000
5.62667847,-49.95737000
5.67436218,-48.90564000
5.72204590,-48.62873000
5.76972961,-50.10131000
5.81741333,-53.03558000
5.86509705,-50.50240000
5.91278076,-48.68892000
5.96046448,-54.16464000
6.00814819,-66.63307000
6.05583191,-48.34486000
6.10351563,-50.12181000
6.15119934,-48.78541000
6.19888306,-55.36739000
6.24656677,-44.54994000
6.29425049,-53.17184000
6.34193420,-46.64577000
6.38961792,-46.76386000
6.43730164,-46.16486000
6.48498535,-44.42552000
6.53266907,-46.53383000
6.58035278,-39.73692000
6.62803650,-51.07241000
6.67572021,-37.10642000
6.72340393,-41.96608000
6.77108765,-35.89399000
6.81877136,-35.87081000
6.86645508,-31.61602000
6.91413879,-29.82449000
6.96182251,-21.69812000
7.00950623,-14.39104000
7.05718994,-8.52563300
7.10487366,-6.74549900
7.15255737,-9.90654800
7.20024109,-15.96010000
7.24792480,-22.82161000
7.29560852,-25.65710000
7.34329224,-26.89102000
7.39097595,-27.84951000
7.43865967,-27.14680000
7.48634338,-25.43899000
7.53402710,-23.37799000
7.58171082,-18.18083000
7.62939453,-12.81595000
7.67707825,-10.01947000
7.72476196,-10.87638000
7.77244568,-15.19880000
7.82012939,-21.76845000
7.86781311,-27.94121000
7.91549683,-30.81634000
7.96318054,-36.78517000
8.01086426,-34.32421000
8.05854797,-41.29328000
8.10623169,-39.28682000
8.15391541,-41.42044000
8.20159912,-46.00231000
8.24928284,-43.54242000
8.29696655,-46.52153000
8.34465027,-43.85334000
8.39233398,-50.72597000
8.44001770,-49.66311000
8.48770142,-48.48301000
8.53538513,-48.52642000
8.58306885,-50.45576000
8.63075256,-50.88072000
8.67843628,-55.48231000
8.72612000,-50.26149000
8.77380371,-52.04430000
8.82148743,-61.41424000
8.86917114,-53.02482000
8.91685486,-57.06517000
8.96453857,-56.12292000
9.01222229,-50.76357000
9.05990601,-51.58793000
9.10758972,-72.76647000
9.15527344,-56.28178000
9.20295715,-57.22458000
9.25064087,-63.40152000
9.29832458,-51.28563000
9.34600830,-51.96648000
9.39369202,-62.28809000
9.44137573,-56.41460000
9.48905945,-60.45309000
9.53674316,-49.13896000
9.58442688,-50.18014000
9.63211060,-65.56414000
9.67979431,-61.88997000
9.72747803,-57.07174000
9.77516174,-69.84061000
9.82284546,-59.59283000
9.87052917,-49.49074000
9.91821289,-52.89017000
9.96589661,-58.88633000
10.01358032,-51.76681000
10.06126404,-51.80070000
10.10894775,-54.98808000
10.15663147,-55.09505000
10.20431519,-49.87056000
10.25199890,-59.58809000
10.29968262,-61.94838000
10.34736633,-61.01242000
10.39505005,-63.66542000
10.44273376,-57.07496000
10.49041748,-54.20342000
10.53810120,-57.00877000
10.58578491,-61.68774000
10.63346863,-55.40785000
10.68115234,-58.30105000
10.72883606,-97.83748000
10.77651978,-54.67506000
10.82420349,-48.68068000
10.87188721,-50.70211000
10.91957092,-63.85810000
10.96725464,-54.28089000
11.01493835,-54.14559000
11.06262207,-50.86728000
11.11030579,-52.70967000
11.15798950,-58.69049000
11.20567322,-51.30769000
11.25335693,-48.98804000
11.30104065,-51.85390000
11.34872437,-54.41070000
11.39640808,-49.32880000
11.44409180,-48.80574000
11.49177551,-52.78122000
11.53945923,-58.86847000
11.58714294,-71.95222000
11.63482666,-59.40551000
11.68251038,-64.22506000
11.73019409,-53.35444000
11.77787781,-47.48398000
11.82556152,-46.24190000
11.87324524,-50.33242000
11.92092896,-58.76505000
11.96861267,-64.16404000
12.01629639,-63.63679000
12.06398010,-56.31123000
12.11166382,-59.51970000
12.15934753,-64.54406000
12.20703125,-62.44354000
12.25471497,-56.25632000
12.30239868,-51.42458000
12.35008240,-49.45779000
12.39776611,-57.17197000
12.44544983,-64.25764000
12.49313354,-54.48864000
12.54081726,-52.25182000
12.58850098,-64.10742000
12.63618469,-61.84010000
12.68386841,-63.66074000
12.73155212,-68.54641000
12.77923584,-60.79266000
12.82691956,-50.71372000
12.87460327,-49.02564000
12.92228699,-51.54348000
12.96997070,-54.11040000
13.01765442,-52.22276000
13.06533813,-51.50993000
13.11302185,-64.48676000
13.16070557,-53.34816000
13.20838928,-55.02109000
13.25607300,-62.57422000
13.30375671,-63.01055000
13.35144043,-62.90578000
13.39912415,-64.39147000
13.44680786,-55.14124000
13.49449158,-51.44552000
13.54217529,-51.41793000
13.58985901,-54.87614000
13.63754272,-51.62657000
13.68522644,-48.66831000
13.73291016,-48.88029000
13.78059387,-52.02970000
13.82827759,-52.93480000
13.87596130,-54.57783000
13.92364502,-60.61634000
13.97132874,-62.41558000
14.01901245,-60.40648000
14.06669617,-52.42993000
14.11437988,-51.84986000
14.16206360,-56.52933000
14.20974731,-68.38313000
14.25743103,-50.18291000
14.30511475,-47.46255000
14.35279846,-48.69555000
14.40048218,-51.46574000
14.44816589,-60.38734000
14.49584961,-62.76238000
14.54353333,-54.92056000
14.59121704,-51.62070000
14.63890076,-53.58998000
14.68658447,-62.33870000
14.73426819,-62.14408000
14.78195190,-60.14054000
14.82963562,-61.03239000
14.87731934,-53.33225000
14.92500305,-49.50572000
14.97268677,-57.25335000
15.02037048,-56.05503000
15.06805420,-55.02356000
15.11573792,-52.30604000
15.16342163,-50.80512000
15.21110535,-52.70121000
15.25878906,-50.86422000
15.30647278,-48.81071000
15.35415649,-50.45800000
15.40184021,-54.61111000
15.44952393,-57.46110000
15.49720764,-61.53339000
15.54489136,-62.40762000
15.59257507,-52.95387000
15.64025879,-50.33524000
15.68794250,-53.81540000
15.73562622,-57.48272000
15.78330994,-55.91888000
15.83099365,-59.57159000
15.87867737,-57.62286000
15.92636108,-63.95844000
15.97404480,-60.62418000
16.02172852,-62.94307000
16.06941223,-55.62434000
16.11709595,-51.42513000
16.16477966,-53.85332000
16.21246338,-55.14163000
16.26014709,-58.17257000
16.30783081,-52.70182000
16.35551453,-49.33852000
16.40319824,-51.77026000
16.45088196,-63.35259000
16.49856567,-57.78771000
16.54624939,-61.47913000
16.59393311,-63.23405000
16.64161682,-61.58324000
16.68930054,-54.37809000
16.73698425,-54.37819000
16.78466797,-53.54873000
16.83235168,-56.73217000
16.88003540,-60.17759000
16.92771912,-51.40913000
16.97540283,-55.15937000
17.02308655,-59.26054000
17.07077026,-54.55061000
17.11845398,-50.32693000
17.16613770,-50.47935000
17.21382141,-61.96926000
17.26150513,-52.47316000
17.30918884,-49.39938000
17.35687256,-50.92464000
17.40455627,-52.29594000
17.45223999,-55.71295000
17.49992371,-60.19597000
17.54760742,-59.28654000
17.59529114,-68.60324000
17.64297485,-61.97104000
17.69065857,-59.11139000
17.73834229,-57.62498000
17.78602600,-57.82009000
17.83370972,-62.22429000
17.88139343,-50.53082000
17.92907715,-51.10017000
17.97676086,-59.79248000
18.02444458,-59.11898000
18.07212830,-60.80242000
18.11981201,-63.69801000
18.16749573,-62.04306000
18.21517944,-57.48066000
18.26286316,-52.66272000
18.31054688,-57.06284000
18.35823059,-57.47803000
18.40591431,-53.71372000
18.45359802,-55.88566000
18.50128174,-54.96400000
18.54896545,-51.47444000
18.59664917,-54.10500000
18.64433289,-60.61735000
18.69201660,-58.43612000
18.73970032,-54.95931000
18.78738403,-50.61221000
18.83506775,-55.90206000
18.88275146,-58.62901000
18.93043518,-58.00125000
18.97811890,-54.95354000
19.02580261,-50.79957000
19.07348633,-52.15982000
19.12117004,-54.15691000
19.16885376,-58.89289000
19.21653748,-52.37107000
19.26422119,-51.41076000
19.31190491,-52.84062000
19.35958862,-60.11835000
19.40727234,-56.99025000
19.45495605,-57.11726000
19.50263977,-62.01057000
19.55032349,-59.73732000
19.59800720,-62.42023000
19.64569092,-55.60777000
19.69337463,-57.52665000
19.74105835,-67.05264000
19.78874207,-59.16741000
19.83642578,-56.96877000
19.88410950,-59.38071000
19.93179321,-59.47004000
19.97947693,-56.99128000
20.02716064,-48.91451000
20.07484436,-47.74347000
20.12252808,-52.03014000
20.17021179,-55.24650000
20.21789551,-55.16559000
20.26557922,-53.43054000
20.31326294,-49.01373000
20.36094666,-50.10712000
20.40863037,-59.70424000
20.45631409,-56.57742000
20.50399780,-49.19254000
20.55168152,-47.09808000
20.59936523,-47.53762000
20.64704895,-50.84013000
20.69473267,-55.40545000
20.74241638,-66.54164000
20.79010010,-65.55572000
20.83778381,-54.18151000
20.88546753,-49.91768000
20.93315125,-52.49660000
20.98083496,-54.66067000
21.02851868,-56.63837000
21.07620239,-63.70804000
21.12388611,-53.08744000
21.17156982,-48.94686000
21.21925354,-45.98209000
21.26693726,-46.02963000
21.31462097,-48.28162000
21.36230469,-54.57992000
21.40998840,-63.79016000
21.45767212,-54.48765000
21.50535583,-47.70817000
21.55303955,-49.44996000
21.60072327,-54.18263000
21.64840698,-51.82407000
21.69609070,-48.67741000
21.74377441,-46.67733000
21.79145813,-49.15564000
21.83914185,-61.12524000
21.88682556,-54.38958000
21.93450928,-49.18795000
21.98219299,-49.83612000
22.02987671,-54.41984000
22.07756042,-52.21305000
22.12524414,-48.78331000
22.17292786,-52.40015000
22.22061157,-72.33247000
22.26829529,-60.41769000
22.31597900,-58.38551000
22.36366272,-54.45276000
22.41134644,-55.79929000
22.45903015,-62.21371000
22.50671387,-69.84109000
22.55439758,-56.83036000
22.60208130,-56.79471000
22.64976501,-63.75145000
22.69744873,-72.00687000
22.74513245,-60.48899000
22.79281616,-65.72491000
22.84049988,-55.08716000
22.88818359,-54.41698000
22.93586731,-54.73748000
22.98355103,-52.86764000
23.03123474,-50.25702000
23.07891846,-51.83175000
23.12660217,-54.58394000
23.17428589,-60.18923000
23.22196960,-64.11549000
23.26965332,-56.67799000
23.31733704,-51.72388000
23.36502075,-52.29797000
23.41270447,-50.84742000
23.46038818,-50.40644000
23.50807190,-58.49100000
23.55575562,-65.84013000
23.60343933,-66.19678000
23.65112305,-63.68508000
23.69880676,-58.92723000
23.74649048,-57.49282000
23.79417419,-69.63451000
23.84185791,-58.32590000
23.88954163,-57.48500000
23.93722534,-59.93242000
23.98490906,-51.89629000
24.03259277,-50.53831000
24.08027649,-51.36426000
24.12796021,-51.31234000
24.17564392,-54.35634000
24.22332764,-56.00700000
24.27101135,-54.70732000
24.31869507,-53.58583000
24.36637878,-58.69713000
24.41406250,-61.05472000
24.46174622,-57.55495000
24.50942993,-57.89254000
24.55711365,-61.87181000
24.60479736,-58.34860000
24.65248108,-52.19423000
24.70016479,-48.64095000
24.74784851,-54.74366000
24.79553223,-59.56848000
24.84321594,-54.40092000
24.89089966,-53.49773000
24.93858337,-52.79618000
24.98626709,-53.02563000
25.03395081,-55.61329000
25.08163452,-56.21187000
25.12931824,-62.50708000
25.17700195,-61.86644000
25.22468567,-55.41792000
25.27236938,-56.72104000
25.32005310,-61.01464000
25.36773682,-58.02297000
25.41542053,-55.10551000
25.46310425,-53.76414000
25.51078796,-54.29221000
25.55847168,-60.38984000
25.60615540,-65.90778000
25.65383911,-59.10696000
25.70152283,-59.36496000
25.74920654,-55.98058000
25.79689026,-60.56449000
25.84457397,-56.71882000
25.89225769,-53.73402000
25.93994141,-59.31484000
25.98762512,-59.27734000
26.03530884,-55.45318000
26.08299255,-53.95502000
26.13067627,-57.55399000
26.17835999,-61.14938000
26.22604370,-72.52023000
26.27372742,-52.93457000
26.32141113,-49.22168000
26.36909485,-51.03386000
26.41677856,-55.35032000
26.46446228,-59.36620000
26.51214600,-83.04234000
26.55982971,-62.12650000
26.60751343,-57.35436000
26.65519714,-69.16718000
26.70288086,-53.11742000
26.75056458,-49.60980000
26.79824829,-51.82711000
26.84593201,-58.48775000
26.89361572,-61.04332000
26.94129944,-55.44197000
26.98898315,-55.82373000
27.03666687,-56.63047000
27.08435059,-58.99397000
27.13203430,-57.88906000
27.17971802,-57.04737000
27.22740173,-62.43603000
27.27508545,-54.13705000
27.32276917,-64.22625000
27.37045288,-53.45734000
27.41813660,-57.07771000
27.46582031,-56.92841000
27.51350403,-51.01080000
27.56118774,-52.26864000
27.60887146,-59.91006000
27.65655518,-72.90964000
27.70423889,-62.99645000
27.75192261,-55.65020000
27.79960632,-52.27737000
27.84729004,-54.92120000
27.89497375,-66.11465000
27.94265747,-54.17104000
27.99034119,-51.37728000
28.03802490,-53.42266000
28.08570862,-57.36753000
28.13339233,-58.47100000
28.18107605,-55.76431000
28.22875977,-53.48827000
28.27644348,-54.04316000
28.32412720,-49.69903000
28.37181091,-51.53158000
28.41949463,-62.34836000
28.46717834,-57.51801000
28.51486206,-52.99178000
28.56254578,-53.98859000
28.61022949,-67.52577000
28.65791321,-67.13364000
28.70559692,-55.66349000
28.75328064,-56.26563000
28.80096436,-73.15250000
28.84864807,-71.33706000
28.89633179,-62.73009000
28.94401550,-61.44780000
28.99169922,-59.43362000
29.03938293,-63.98009000
29.08706665,-61.05167000
29.13475037,-53.38940000
29.18243408,-60.04860000
29.23011780,-53.08579000
29.27780151,-59.83751000
29.32548523,-54.89735000
29.37316895,-53.35976000
29.42085266,-54.42744000
29.46853638,-55.95488000
29.51622009,-52.86032000
29.56390381,-52.26124000
29.61158752,-50.05932000
29.65927124,-53.33681000
29.70695496,-57.05997000
29.75463867,-55.83229000
29.80232239,-55.01546000
29.85000610,-52.82134000
29.89768982,-50.85799000
29.94537354,-55.03772000
29.99305725,-57.29432000
30.04074097,-52.87524000
30.08842468,-60.76897000
30.13610840,-66.18819000
30.18379211,-65.86592000
30.23147583,-59.13887000
30.27915955,-56.52282000
30.32684326,-72.92874000
30.37452698,-54.40330000
30.42221069,-51.83119000
30.46989441,-51.36165000
30.51757813,-51.76131000
30.56526184,-54.44760000
30.61294556,-59.12598000
30.66062927,-56.50494000
30.70831299,-57.64291000
30.75599670,-63.05840000
30.80368042,-59.42917000
30.85136414,-55.68079000
30.89904785,-59.25951000
30.94673157,-61.11654000
30.99441528,-55.15913000
31.04209900,-52.78268000
31.08978271,-58.58548000
31.13746643,-66.54731000
31.18515015,-62.42199000
31.23283386,-56.07595000
31.28051758,-53.83108000
31.32820129,-55.91268000
31.37588501,-58.98306000
31.42356873,-56.21397000
31.47125244,-61.01399000
31.51893616,-54.16599000
31.56661987,-57.17334000
31.61430359,-57.35068000
31.66198730,-65.74200000
31.70967102,-53.72018000
31.75735474,-50.88827000
31.80503845,-53.15350000
31.85272217,-58.72633000
31.90040588,-61.87561000
31.94808960,-70.84100000
31.99577332,-55.44315000
32.04345703,-53.50837000
32.09114075,-56.93744000
32.13882446,-68.00168000
32.18650818,-58.59053000
32.23419189,-60.05980000
32.28187561,-54.20681000
32.32955933,-52.38539000
32.37724304,-55.36655000
32.42492676,-57.14338000
32.47261047,-57.60567000
32.52029419,-65.02157000
32.56797791,-65.33650000
32.61566162,-53.59909000
32.66334534,-51.78216000
32.71102905,-58.64425000
32.75871277,-57.76273000
32.80639648,-55.74475000
32.85408020,-54.53193000
32.90176392,-53.10002000
32.94944763,-57.60228000
32.99713135,-54.00054000
33.04481506,-51.16864000
33.09249878,-63.03532000
33.14018250,-59.93465000
33.18786621,-62.96493000
33.23554993,-58.74048000
33.28323364,-59.37400000
33.33091736,-58.72127000
33.37860107,-70.33795000
33.42628479,-58.48841000
33.47396851,-53.33705000
33.52165222,-54.24347000
33.56933594,-50.97943000
33.61701965,-53.92727000
33.66470337,-54.69257000
33.71238708,-51.04499000
33.76007080,-53.48923000
33.80775452,-87.33963000
33.85543823,-52.42149000
33.90312195,-49.43970000
33.95080566,-50.23581000
33.99848938,-50.51509000
34.04617310,-54.41161000
34.09385681,-57.65258000
34.14154053,-55.01493000
34.18922424,-54.46924000
34.23690796,-51.80182000
34.28459167,-55.69507000
34.33227539,-52.33583000
34.37995911,-49.60092000
34.42764282,-49.96143000
34.47532654,-54.38226000
34.52301025,-55.04364000
34.57069397,-56.67097000
34.61837769,-67.26282000
34.66606140,-54.18359000
34.71374512,-51.53586000
34.76142883,-53.20930000
34.80911255,-51.79462000
34.85679626,-49.04856000
34.90447998,-48.81361000
34.95216370,-51.25681000
34.99984741,-52.27401000
35.04753113,-50.90015000
35.09521484,-51.97857000
35.14289856,-55.65487000
35.19058228,-61.43295000
35.23826599,-62.28365000
35.28594971,-54.14300000
35.33363342,-54.83119000
35.38131714,-64.73132000
35.42900085,-53.18806000
35.47668457,-55.65014000
35.52436829,-65.39224000
35.57205200,-57.05206000
35.61973572,-55.77753000
35.66741943,-51.45983000
35.71510315,-50.78141000
35.76278687,-54.50998000
35.81047058,-62.37768000
35.85815430,-58.27127000
35.90583801,-50.33758000
35.95352173,-50.70719000
36.00120544,-47.41888000
36.04888916,-49.35495000
36.09657288,-65.66428000
36.14425659,-52.11912000
36.19194031,-57.48070000
36.23962402,-57.19839000
36.28730774,-57.00057000
36.33499146,-53.04947000
36.38267517,-51.60425000
36.43035889,-53.10213000
36.47804260,-52.32630000
36.52572632,-54.99579000
36.57341003,-56.49057000
36.62109375,-54.35786000
36.66877747,-56.05987000
36.71646118,-56.38920000
36.76414490,-55.15548000
36.81182861,-52.85139000
36.85951233,-50.75840000
36.90719604,-52.19451000
36.95487976,-54.30563000
37.00256348,-56.56948000
37.05024719,-57.58418000
37.09793091,-53.54099000
37.14561462,-52.27239000
37.19329834,-50.46402000
37.24098206,-53.30418000
37.28866577,-71.32738000
37.33634949,-59.18921000
37.38403320,-61.61744000
37.43171692,-69.41985000
37.47940063,-72.26164000
37.52708435,-63.79090000
37.57476807,-64.43153000
37.62245178,-70.40653000
37.67013550,-69.04052000
37.71781921,-59.15111000
37.76550293,-57.83361000
37.81318665,-64.65737000
37.86087036,-64.93235000
37.90855408,-61.04780000
37.95623779,-63.17823000
38.00392151,-59.56715000
38.05160522,-59.90839000
38.09928894,-71.87356000
38.14697266,-55.02640000
38.19465637,-50.63580000
38.24234009,-56.04167000
38.29002380,-54.71495000
38.33770752,-49.66899000
38.38539124,-54.87993000
38.43307495,-55.66022000
38.48075867,-54.84760000
38.52844238,-59.88293000
38.57612610,-58.95047000
38.62380981,-52.19778000
38.67149353,-50.77050000
38.71917725,-53.78931000
38.76686096,-55.80693000
38.81454468,-59.94466000
38.86222839,-71.01782000
38.90991211,-62.32627000
38.95759583,-58.61060000
39.00527954,-64.08510000
39.05296326,-72.69476000
39.10064697,-65.78954000
39.14833069,-61.29609000
39.19601440,-60.91391000
39.24369812,-62.07653000
39.29138184,-56.53995000
39.33906555,-53.48997000
39.38674927,-57.71392000
39.43443298,-53.41393000
39.48211670,-52.52792000
39.52980042,-55.58624000
39.57748413,-67.38041000
39.62516785,-69.67267000
39.67285156,-64.49814000
39.72053528,-58.57710000
39.76821899,-62.17743000
39.81590271,-56.92209000
39.86358643,-53.87655000
39.91127014,-58.45153000
39.95895386,-61.43991000
40.00663757,-54.90055000
40.05432129,-56.77319000
40.10200500,-57.94794000
40.14968872,-50.85046000
40.19737244,-50.12054000
40.24505615,-63.40667000
40.29273987,-50.54398000
40.34042358,-48.72614000
40.38810730,-54.54213000
40.43579102,-60.17704000
40.48347473,-68.04069000
40.53115845,-58.31894000
40.57884216,-53.23272000
40.62652588,-49.69989000
40.67420959,-49.29589000
40.72189331,-54.81830000
40.76957703,-54.20926000
40.81726074,-54.16613000
40.86494446,-62.36634000
40.91262817,-58.19230000
40.96031189,-52.81098000
41.00799561,-50.70102000
41.05567932,-57.91901000
41.10336304,-62.85511000
41.15104675,-62.97584000
41.19873047,-60.91083000
41.24641418,-56.90415000
41.29409790,-62.30227000
41.34178162,-63.78012000
41.38946533,-63.27845000
41.43714905,-53.73206000
41.48483276,-55.49806000
41.53251648,-61.39831000
41.58020020,-56.98483000
41.62788391,-56.82508000
41.67556763,-71.24872000
41.72325134,-59.28701000
41.77093506,-58.21245000
41.81861877,-65.74854000
41.86630249,-53.41148000
41.91398621,-53.89241000
41.96166992,-72.94669000
42.00935364,-60.14601000
42.05703735,-57.84523000
42.10472107,-57.14794000
42.15240479,-61.12831000
42.20008850,-65.17076000
42.24777222,-57.92535000
42.29545593,-52.53716000
42.34313965,-54.95065000
42.39082336,-56.45508000
42.43850708,-49.39103000
42.48619080,-50.43277000
42.53387451,-52.10529000
42.58155823,-49.98616000
42.62924194,-52.70815000
42.67692566,-59.62183000
42.72460938,-59.21999000
42.77229309,-55.46688000
42.81997681,-72.34906000
42.86766052,-55.23771000
42.91534424,-55.08445000
42.96302795,-62.55583000
43.01071167,-65.33427000
43.05839539,-57.88986000
43.10607910,-59.08379000
43.15376282,-70.60303000
43.20144653,-61.72309000
43.24913025,-58.25667000
43.29681396,-52.24531000
43.34449768,-49.61185000
43.39218140,-53.99113000
43.43986511,-59.57648000
43.48754883,-59.60422000
43.53523254,-63.29626000
43.58291626,-60.17904000
43.63059998,-60.91647000
43.67828369,-60.62446000
43.72596741,-61.08282000
43.77365112,-59.20256000
43.82133484,-60.51194000
43.86901855,-73.11646000
43.91670227,-60.72530000
43.96438599,-64.22778000
44.01206970,-52.84226000
44.05975342,-51.47547000
44.10743713,-61.39311000
44.15512085,-56.38276000
44.20280457,-54.52671000
44.25048828,-52.38214000
44.29817200,-56.07556000
44.34585571,-54.77237000
44.39353943,-50.73185000
44.44122314,-52.51040000
44.48890686,-53.47488000
44.53659058,-50.24576000
44.58427429,-51.47116000
44.63195801,-59.01638000
44.67964172,-59.12223000
44.72732544,-59.70045000
44.77500916,-63.33922000
44.82269287,-60.44868000
44.87037659,-63.23989000
44.91806030,-55.26786000
44.96574402,-53.70081000
45.01342773,-67.89738000
45.06111145,-57.23430000
45.10879517,-54.89129000
45.15647888,-55.13079000
45.20416260,-57.16349000
45.25184631,-61.12616000
45.29953003,-66.61124000
45.34721375,-59.30589000
45.39489746,-59.57750000
45.44258118,-51.01278000
45.49026489,-51.05158000
45.53794861,-68.96680000
45.58563232,-53.91948000
45.63331604,-51.06218000
45.68099976,-52.36446000
45.72868347,-55.72925000
45.77636719,-57.09827000
45.82405090,-62.48306000
45.87173462,-61.22795000
45.91941833,-53.38168000
45.96710205,-51.38817000
46.01478577,-52.90498000
46.06246948,-58.15171000
46.11015320,-56.57536000
46.15783691,-53.94711000
46.20552063,-55.52435000
46.25320435,-59.23719000
46.30088806,-58.95417000
46.34857178,-54.94481000
46.39625549,-61.55782000
46.44393921,-58.88042000
46.49162292,-54.09070000
46.53930664,-56.40211000
46.58699036,-54.55472000
46.63467407,-56.60247000
46.68235779,-58.02351000
46.73004150,-50.35135000
46.77772522,-52.18056000
46.82540894,-62.45562000
46.87309265,-62.93266000
46.92077637,-55.09866000
46.96846008,-51.72603000
47.01614380,-52.24031000
47.06382751,-61.45517000
47.11151123,-56.71549000
47.15919495,-53.47073000
47.20687866,-59.00984000
47.25456238,-60.57534000
47.30224609,-58.00465000
47.34992981,-72.06671000
47.39761353,-56.60677000
47.44529724,-58.04665000
47.49298096,-60.18898000
47.54066467,-63.97845000
47.58834839,-62.33913000
47.63603210,-58.06434000
47.68371582,-57.58334000
47.73139954,-57.77977000
47.77908325,-56.08334000
47.82676697,-55.32211000
47.87445068,-56.22621000
47.92213440,-58.55108000
47.96981812,-60.68526000
48.01750183,-76.62070000
48.06518555,-65.41057000
48.11286926,-62.26654000
48.16055298,-59.48913000
48.20823669,-52.61144000
48.25592041,-58.82438000
48.30360413,-56.06167000
48.35128784,-54.60906000
48.39897156,-57.36738000
48.44665527,-59.73616000
48.49433899,-60.36845000
48.54202271,-60.72668000
48.58970642,-62.92167000
48.63739014,-53.89082000
48.68507385,-51.65903000
48.73275757,-51.13133000
48.78044128,-51.65851000
48.82812500,-54.08183000
48.87580872,-59.37977000
48.92349243,-63.07188000
48.97117615,-56.08875000
49.01885986,-50.34874000
49.06654358,-52.79814000
49.11422729,-58.97003000
49.16191101,-54.72642000
49.20959473,-55.72369000
49.25727844,-55.33122000
49.30496216,-53.58758000
49.35264587,-52.25319000
49.40032959,-56.79813000
49.44801331,-62.11907000
49.49569702,-51.42365000
49.54338074,-52.49356000
49.59106445,-56.73469000
49.63874817,-62.51909000
49.68643188,-53.54591000
49.73411560,-54.36742000
49.78179932,-51.50372000
49.82948303,-60.62527000
49.87716675,-53.31458000
49.92485046,-50.05186000
49.97253418,-55.57697000
50.02021790,-55.16394000
50.06790161,-52.10120000
50.11558533,-58.18445000
50.16326904,-67.60093000
50.21095276,-62.34270000
50.25863647,-55.00209000
50.30632019,-58.85504000
50.35400391,-62.25965000
50.40168762,-56.58670000
50.44937134,-52.35664000
50.49705505,-51.16848000
50.54473877,-53.40263000
50.59242249,-56.19498000
50.64010620,-63.68662000
50.68778992,-53.53144000
50.73547363,-51.09758000
50.78315735,-54.26526000
50.83084106,-56.54875000
50.87852478,-54.21084000
50.92620850,-53.84577000
50.97389221,-53.98503000
51.02157593,-51.27314000
51.06925964,-50.38519000
51.11694336,-52.98076000
51.16462708,-59.21937000
51.21231079,-59.59893000
51.25999451,-51.97695000
51.30767822,-53.52282000
51.35536194,-56.69799000
51.40304565,-60.39450000
51.45072937,-59.58768000
51.49841309,-57.65256000
51.54609680,-56.65682000
51.59378052,-54.98310000
51.64146423,-63.90627000
51.68914795,-57.99366000
51.73683167,-52.95864000
51.78451538,-55.59639000
51.83219910,-56.76691000
51.87988281,-55.27915000
51.92756653,-53.31464000
51.97525024,-55.88041000
52.02293396,-61.56054000
52.07061768,-58.07379000
52.11830139,-56.12830000
52.16598511,-55.17147000
52.21366882,-54.53222000
52.26135254,-57.52082000
52.30903625,-66.59733000
52.35671997,-60.56959000
52.40440369,-59.64246000
52.45208740,-56.94828000
52.49977112,-55.45018000
52.54745483,-57.51109000
52.59513855,-53.92042000
52.64282227,-58.14483000
52.69050598,-69.78993000
52.73818970,-60.22292000
52.78587341,-57.29905000
52.83355713,-53.25766000
52.88124084,-50.09109000
52.92892456,-51.17042000
52.97660828,-57.65055000
53.02429199,-54.46545000
53.07197571,-55.10133000
53.11965942,-63.89932000
53.16734314,-61.48182000
53.21502686,-65.63987000
53.26271057,-55.39249000
53.31039429,-51.60957000
53.35807800,-55.47041000
53.40576172,-55.15309000
53.45344543,-58.60592000
53.50112915,-54.43957000
53.54881287,-53.50262000
53.59649658,-53.36835000
53.64418030,-52.26837000
53.69186401,-53.43325000
53.73954773,-57.83512000
53.78723145,-77.94256000
53.83491516,-55.64574000
53.88259888,-57.07903000
53.93028259,-69.53951000
53.97796631,-66.07059000
54.02565002,-64.64643000
54.07333374,-53.85759000
54.12101746,-52.24404000
54.16870117,-55.47623000
54.21638489,-65.19769000
54.26406860,-59.55939000
54.31175232,-56.05518000
54.35943604,-52.63757000
54.40711975,-53.53042000
54.45480347,-70.17948000
54.50248718,-56.09354000
54.55017090,-55.53034000
54.59785461,-62.39459000
54.64553833,-55.56491000
54.69322205,-51.68160000
54.74090576,-59.80112000
54.78858948,-59.84664000
54.83627319,-57.41657000
54.88395691,-65.68008000
54.93164063,-68.68714000
54.97932434,-63.42717000
55.02700806,-55.61634000
55.07469177,-59.02390000
55.12237549,-57.88427000
55.17005920,-58.40892000
55.21774292,-65.49834000
55.26542664,-61.92905000
55.31311035,-55.67899000
55.36079407,-56.99287000
55.40847778,-49.80395000
55.45616150,-49.14287000
55.50384521,-59.23170000
55.55152893,-58.16051000
55.59921265,-57.63150000
55.64689636,-65.82654000
55.69458008,-55.94872000
55.74226379,-56.20622000
55.78994751,-54.69594000
55.83763123,-52.72686000
55.88531494,-55.80397000
55.93299866,-61.43427000
55.98068237,-53.02530000
56.02836609,-51.13697000
56.07604980,-52.48088000
56.12373352,-52.16590000
56.17141724,-54.18629000
56.21910095,-60.41563000
56.26678467,-60.51500000
56.31446838,-59.12958000
56.36215210,-57.44855000
56.40983582,-55.48521000
56.45751953,-54.18421000
56.50520325,-57.78341000
56.55288696,-67.09050000
56.60057068,-64.82567000
56.64825439,-58.42640000
56.69593811,-57.63688000
56.74362183,-57.11490000
56.79130554,-51.66542000
56.83898926,-49.81623000
56.88667297,-52.57695000
56.93435669,-55.71487000
56.98204041,-57.34161000
57.02972412,-60.33910000
57.07740784,-65.72418000
57.12509155,-59.00264000
57.17277527,-67.34805000
57.22045898,-55.84583000
57.26814270,-55.79586000
57.31582642,-58.70554000
57.36351013,-56.27963000
57.41119385,-51.64728000
57.45887756,-53.18234000
57.50656128,-53.73457000
57.55424500,-55.40740000
57.60192871,-65.08234000
57.64961243,-63.07589000
57.69729614,-61.36408000
57.74497986,-64.27654000
57.79266357,-57.39575000
57.84034729,-53.81981000
57.88803101,-51.62896000
57.93571472,-52.91460000
57.98339844,-60.83820000
58.03108215,-61.51305000
58.07876587,-55.40421000
58.12644958,-59.27756000
58.17413330,-55.78148000
58.22181702,-59.18609000
58.26950073,-55.77644000
58.31718445,-55.05145000
58.36486816,-62.67545000
58.41255188,-62.90575000
58.46023560,-58.30656000
58.50791931,-61.95276000
58.55560303,-58.23602000
58.60328674,-53.60402000
58.65097046,-59.19244000
58.69865417,-63.56472000
58.74633789,-60.85352000
58.79402161,-56.60716000
58.84170532,-54.86630000
58.88938904,-59.37181000
58.93707275,-56.20222000
58.98475647,-55.10323000
59.03244019,-60.90291000
59.08012390,-67.17976000
59.12780762,-74.22675000
59.17549133,-59.30844000
59.22317505,-60.90310000
59.27085876,-60.50053000
59.31854248,-57.08758000
59.36622620,-62.45612000
59.41390991,-56.16755000
59.46159363,-57.38396000
59.50927734,-62.72795000
59.55696106,-66.06193000
59.60464478,-60.85910000
59.65232849,-58.05744000
59.70001221,-56.96589000
59.74769592,-58.99075000
59.79537964,-58.87748000
59.84306335,-54.25946000
59.89074707,-53.85498000
59.93843079,-54.93591000
59.98611450,-59.65942000
60.03379822,-67.04929000
60.08148193,-59.02271000
60.12916565,-59.10584000
60.17684937,-63.76558000
60.22453308,-67.26735000
60.27221680,-55.53357000
60.31990051,-53.72913000
60.36758423,-59.81369000
60.41526794,-57.86388000
60.46295166,-59.76929000
60.51063538,-62.25458000
60.55831909,-56.73188000
60.60600281,-54.70605000
60.65368652,-62.20628000
60.70137024,-54.55009000
60.74905396,-49.22356000
60.79673767,-53.14602000
60.84442139,-56.25640000
60.89210510,-55.47958000
60.93978882,-52.90879000
60.98747253,-53.67468000
61.03515625,-69.99858000
61.08283997,-57.54116000
61.13052368,-55.71548000
61.17820740,-57.12092000
61.22589111,-56.19843000
61.27357483,-59.78649000
61.32125854,-55.63499000
61.36894226,-52.70596000
61.41662598,-56.40791000
61.46430969,-78.13040000
61.51199341,-59.08829000
61.55967712,-57.87180000
61.60736084,-58.10810000
61.65504456,-53.64378000
61.70272827,-53.42634000
61.75041199,-60.09286000
61.79809570,-67.70755000
61.84577942,-54.13986000
61.89346313,-53.43653000
61.94114685,-54.55651000
61.98883057,-52.97083000
62.03651428,-58.92968000
62.08419800,-58.38182000
62.13188171,-56.94992000
62.17956543,-54.79530000
62.22724915,-60.93405000
62.27493286,-63.20568000
62.32261658,-57.90661000
62.37030029,-59.70315000
62.41798401,-72.11189000
62.46566772,-66.96046000
62.51335144,-66.89330000
62.56103516,-60.52801000
62.60871887,-56.57086000
62.65640259,-57.51694000
62.70408630,-62.93890000
62.75177002,-65.21930000
62.79945374,-55.26924000
62.84713745,-55.59272000
62.89482117,-56.15894000
62.94250488,-53.34682000
62.99018860,-59.32454000
63.03787231,-66.07552000
63.08555603,-61.32747000
63.13323975,-58.14196000
63.18092346,-54.33997000
63.22860718,-56.99812000
63.27629089,-55.69628000
63.32397461,-56.88313000
63.37165833,-58.88710000
63.41934204,-53.62299000
63.46702576,-53.43592000
63.51470947,-62.87064000
63.56239319,-62.71877000
63.61007690,-60.78617000
63.65776062,-56.46128000
63.70544434,-60.15926000
63.75312805,-63.59721000
63.80081177,-55.08888000
63.84849548,-54.98407000
63.89617920,-58.36552000
63.94386292,-57.06554000
63.99154663,-63.85881000
64.03923035,-61.47752000
64.08691406,-62.01836000
64.13459778,-61.69714000
64.18228149,-57.42955000
64.22996521,-59.91618000
64.27764893,-62.71787000
64.32533264,-55.88992000
64.37301636,-58.74202000
64.42070007,-69.22646000
64.46838379,-64.28008000
64.51606750,-55.67188000
64.56375122,-54.44366000
64.61143494,-57.40478000
64.65911865,-61.85301000
64.70680237,-58.07072000
64.75448608,-61.24648000
64.80216980,-63.64243000
64.84985352,-72.16444000
64.89753723,-63.57858000
64.94522095,-58.09816000
64.99290466,-64.57053000
65.04058838,-52.84514000
65.08827209,-51.17346000
65.13595581,-52.29940000
65.18363953,-52.31274000
65.23132324,-52.99242000
65.27900696,-56.04604000
65.32669067,-55.67963000
65.37437439,-52.50774000
65.42205811,-54.96303000
65.46974182,-51.11482000
65.51742554,-49.91250000
65.56510925,-49.48848000
65.61279297,-51.73792000
65.66047668,-57.84252000
65.70816040,-63.48317000
65.75584412,-52.14956000
65.80352783,-50.10279000
65.85121155,-52.61385000
65.89889526,-62.97873000
65.94657898,-60.26976000
65.99426270,-57.47056000
66.04194641,-62.48459000
66.08963013,-64.90486000
66.13731384,-54.05409000
66.18499756,-50.30228000
66.23268127,-51.16398000
66.28036499,-51.03440000
66.32804871,-52.27466000
66.37573242,-55.92680000
66.42341614,-59.11343000
66.47109985,-60.53316000
66.51878357,-61.98320000
66.56646729,-53.32320000
66.61415100,-54.18399000
66.66183472,-57.46753000
66.70951843,-61.99028000
66.75720215,-63.13145000
66.80488586,-75.11100000
66.85256958,-63.14621000
66.90025330,-59.99245000
66.94793701,-59.87976000
66.99562073,-73.41056000
67.04330444,-66.81443000
67.09098816,-59.07158000
67.13867188,-51.98719000
67.18635559,-50.99699000
67.23403931,-57.67249000
67.28172302,-54.51810000
67.32940674,-55.71159000
67.37709045,-58.38493000
67.42477417,-62.04521000
67.47245789,-67.23170000
67.52014160,-57.06387000
67.56782532,-52.20486000
67.61550903,-54.41504000
67.66319275,-56.24673000
67.71087646,-53.42359000
67.75856018,-54.36622000
67.80624390,-54.30898000
67.85392761,-52.16062000
67.90161133,-54.96201000
67.94929504,-57.89299000
67.99697876,-60.59444000
68.04466248,-65.22228000
68.09234619,-64.34992000
68.14002991,-63.17279000
68.18771362,-52.19197000
68.23539734,-51.57737000
68.28308105,-55.36194000
68.33076477,-54.69637000
68.37844849,-56.94579000
68.42613220,-73.25397000
68.47381592,-65.54103000
68.52149963,-73.86121000
68.56918335,-61.39362000
68.61686707,-58.06569000
68.66455078,-56.63029000
68.71223450,-61.92693000
68.75991821,-56.22945000
68.80760193,-57.43185000
68.85528564,-57.76443000
68.90296936,-54.40550000
68.95065308,-53.83644000
68.99833679,-54.27488000
69.04602051,-59.18671000
69.09370422,-51.81706000
69.14138794,-49.30052000
69.18907166,-55.54461000
69.23675537,-61.30070000
69.28443909,-55.91481000
69.33212280,-52.75587000
69.37980652,-55.70494000
69.42749023,-52.77729000
69.47517395,-55.78778000
69.52285767,-55.69473000
69.57054138,-56.37883000
69.61822510,-64.00762000
69.66590881,-58.64887000
69.71359253,-56.94489000
69.76127625,-55.89151000
69.80895996,-57.62757000
69.85664368,-61.36506000
69.90432739,-57.55476000
69.95201111,-58.98554000
69.99969482,-80.03613000
70.04737854,-56.87756000
70.09506226,-50.98408000
70.14274597,-49.06149000
70.19042969,-50.55721000
70.23811340,-58.67975000
70.28579712,-63.43462000
70.33348083,-56.17627000
70.38116455,-60.50203000
70.42884827,-58.23037000
70.47653198,-53.98273000
70.52421570,-53.28949000
70.57189941,-51.39820000
70.61958313,-53.47234000
70.66726685,-57.43167000
70.71495056,-50.36282000
70.76263428,-50.66778000
70.81031799,-51.13674000
70.85800171,-53.60917000
70.90568542,-58.96235000
70.95336914,-64.61122000
71.00105286,-61.40133000
71.04873657,-61.53448000
71.09642029,-54.80301000
71.14410400,-63.88974000
71.19178772,-61.09131000
71.23947144,-56.96800000
71.28715515,-58.43382000
71.33483887,-65.03302000
71.38252258,-68.36043000
71.43020630,-57.18321000
71.47789001,-55.57214000
71.52557373,-55.03568000
71.57325745,-56.88999000
71.62094116,-74.88116000
71.66862488,-74.88774000
71.71630859,-58.17235000
71.76399231,-54.61842000
71.81167603,-61.73736000
71.85935974,-71.31347000
71.90704346,-55.12123000
71.95472717,-52.95720000
72.00241089,-57.44073000
72.05009460,-59.94805000
72.09777832,-59.79523000
72.14546204,-61.52107000
72.19314575,-53.90717000
72.24082947,-51.62618000
72.28851318,-50.84510000
72.33619690,-57.67468000
72.38388062,-53.64699000
72.43156433,-55.91922000
72.47924805,-54.31866000
72.52693176,-51.31275000
72.57461548,-53.15878000
72.62229919,-53.02353000
72.66998291,-55.86109000
72.71766663,-54.58072000
72.76535034,-57.23557000
72.81303406,-56.56711000
72.86071777,-58.26577000
72.90840149,-63.28497000
72.95608521,-65.70206000
73.00376892,-67.09856000
73.05145264,-59.86151000
73.09913635,-56.73381000
73.14682007,-56.01602000
73.19450378,-70.70186000
73.24218750,-56.82514000
73.28987122,-54.94366000
73.33755493,-56.06304000
73.38523865,-55.67528000
73.43292236,-59.83891000
73.48060608,-64.52926000
73.52828979,-67.18855000
73.57597351,-58.81277000
73.62365723,-60.05312000
73.67134094,-71.12916000
73.71902466,-57.47573000
73.76670837,-54.40681000
73.81439209,-55.93126000
73.86207581,-54.04501000
73.90975952,-59.76976000
73.95744324,-55.66465000
74.00512695,-54.12056000
74.05281067,-56.86140000
74.10049438,-58.53061000
74.14817810,-54.50823000
74.19586182,-56.14976000
74.24354553,-65.79266000
74.29122925,-76.27808000
74.33891296,-54.48628000
74.38659668,-53.44402000
74.43428040,-62.05085000
74.48196411,-54.70684000
74.52964783,-56.42845000
74.57733154,-59.84673000
74.62501526,-53.78148000
74.67269897,-56.50459000
74.72038269,-63.69034000
74.76806641,-56.52674000
74.81575012,-57.80075000
74.86343384,-55.23530000
74.91111755,-57.92254000
74.95880127,-65.29014000
75.00648499,-57.99266000
75.05416870,-58.61522000
75.10185242,-67.33904000
75.14953613,-59.53772000
75.19721985,-52.30054000
75.24490356,-49.98418000
75.29258728,-51.10220000
75.34027100,-58.61199000
75.38795471,-58.38594000
75.43563843,-63.16299000
75.48332214,-62.86066000
75.53100586,-58.92824000
75.57868958,-64.97911000
75.62637329,-64.30318000
75.67405701,-69.14401000
75.72174072,-72.42182000
75.76942444,-59.13748000
75.81710815,-56.59097000
75.86479187,-56.00884000
75.91247559,-55.14960000
75.96015930,-53.45657000
76.00784302,-55.07470000
76.05552673,-64.20169000
76.10321045,-61.24169000
76.15089417,-52.73066000
76.19857788,-49.97675000
76.24626160,-54.33460000
76.29394531,-72.71002000
76.34162903,-55.39026000
76.38931274,-51.24630000
76.43699646,-51.53958000
76.48468018,-54.90021000
76.53236389,-57.24882000
76.58004761,-60.48540000
76.62773132,-59.99015000
76.67541504,-57.48167000
76.72309875,-61.65796000
76.77078247,-77.06767000
76.81846619,-59.94049000
76.86614990,-56.51592000
76.91383362,-55.37075000
76.96151733,-57.77795000
77.00920105,-62.07164000
77.05688477,-60.93334000
77.10456848,-56.06987000
77.15225220,-63.37673000
77.19993591,-58.47906000
77.24761963,-52.07047000
77.29530334,-52.02605000
77.34298706,-55.27075000
77.39067078,-58.71603000
77.43835449,-61.51348000
77.48603821,-51.75667000
77.53372192,-49.05220000
77.58140564,-51.73072000
77.62908936,-55.42905000
77.67677307,-53.49728000
77.72445679,-55.06610000
77.77214050,-65.62256000
77.81982422,-54.00205000
77.86750793,-51.60212000
77.91519165,-59.55937000
77.96287537,-57.74878000
78.01055908,-56.50420000
78.05824280,-66.52280000
78.10592651,-57.13824000
78.15361023,-56.23275000
78.20129395,-57.24695000
78.24897766,-54.03690000
78.29666138,-55.63103000
78.34434509,-83.83263000
78.39202881,-68.44029000
78.43971252,-67.15249000
78.48739624,-70.22927000
78.53507996,-70.13492000
78.58276367,-64.96617000
78.63044739,-59.73255000
78.67813110,-59.37906000
78.72581482,-61.14243000
78.77349854,-56.36282000
78.82118225,-60.78131000
78.86886597,-58.63621000
78.91654968,-56.41949000
78.96423340,-54.75907000
79.01191711,-70.84739000
79.05960083,-56.16642000
79.10728455,-52.57359000
79.15496826,-51.64730000
79.20265198,-50.63657000
79.25033569,-50.91935000
79.29801941,-54.62579000
79.34570313,-53.89043000
79.39338684,-57.85374000
79.44107056,-63.44445000
79.48875427,-68.30643000
79.53643799,-57.04542000
79.58412170,-58.70629000
79.63180542,-58.50486000
79.67948914,-55.06532000
79.72717285,-57.97063000
79.77485657,-59.64435000
79.82254028,-59.41479000
79.87022400,-55.85479000
79.91790771,-56.01411000
79.96559143,-55.74311000
80.01327515,-55.93600000
80.06095886,-63.31990000
80.10864258,-57.79105000
80.15632629,-56.48456000
80.20401001,-60.27391000
80.25169373,-58.37129000
80.29937744,-56.67090000
80.34706116,-61.26823000
80.39474487,-61.70847000
80.44242859,-65.82834000
80.49011230,-60.94207000
80.53779602,-57.06485000
80.58547974,-58.49402000
80.63316345,-61.97317000
80.68084717,-65.57015000
80.72853088,-55.46944000
80.77621460,-56.59270000
80.82389832,-56.35154000
80.87158203,-65.29766000
80.91926575,-53.75649000
80.96694946,-53.17143000
81.01463318,-53.88006000
81.06231689,-54.08250000
81.11000061,-53.19167000
81.15768433,-57.73917000
81.20536804,-56.71056000
81.25305176,-51.70978000
81.30073547,-61.26430000
81.34841919,-62.54119000
81.39610291,-62.50672000
81.44378662,-54.82910000
81.49147034,-55.24930000
81.53915405,-55.86327000
81.58683777,-52.64762000
81.63452148,-50.38996000
81.68220520,-52.23120000
81.72988892,-54.67508000
81.77757263,-55.34587000
81.82525635,-56.31985000
81.87294006,-59.26256000
81.92062378,-56.91227000
81.96830750,-55.92959000
82.01599121,-53.99908000
82.06367493,-51.16832000
82.11135864,-57.19305000
82.15904236,-64.45157000
82.20672607,-55.80651000
82.25440979,-57.07679000
82.30209351,-54.82834000
82.34977722,-52.74596000
82.39746094,-57.52115000
82.44514465,-55.82986000
82.49282837,-53.53298000
82.54051208,-57.05196000
82.58819580,-64.36279000
82.63587952,-55.73032000
82.68356323,-66.96786000
82.73124695,-56.03706000
82.77893066,-52.40028000
82.82661438,-58.68235000
82.87429810,-58.58597000
82.92198181,-60.44773000
82.96966553,-54.75921000
83.01734924,-53.30084000
83.06503296,-53.29134000
83.11271667,-55.62648000
83.16040039,-55.91332000
83.20808411,-53.85231000
83.25576782,-54.71330000
83.30345154,-70.70431000
83.35113525,-56.50683000
83.39881897,-53.10413000
83.44650269,-52.07789000
83.49418640,-56.61316000
83.54187012,-56.96795000
83.58955383,-51.90776000
83.63723755,-58.59420000
83.68492126,-57.73738000
83.73260498,-51.13110000
83.78028870,-52.57454000
83.82797241,-57.22881000
83.87565613,-68.87209000
83.92333984,-58.56770000
83.97102356,-59.58897000
84.01870728,-67.78748000
84.06639099,-70.84944000
84.11407471,-55.96743000
84.16175842,-57.02263000
84.20944214,-59.79115000
84.25712585,-60.37729000
84.30480957,-62.52998000
84.35249329,-62.36751000
84.40017700,-70.46751000
84.44786072,-54.69056000
84.49554443,-50.41626000
84.54322815,-51.24280000
84.59091187,-55.99743000
84.63859558,-62.32367000
84.68627930,-62.52434000
84.73396301,-65.26808000
84.78164673,-70.01370000
84.82933044,-56.07922000
84.87701416,-52.92453000
84.92469788,-52.36522000
84.97238159,-58.37355000
85.02006531,-58.62403000
85.06774902,-59.16542000
85.11543274,-70.78571000
85.16311646,-65.20673000
85.21080017,-57.65617000
85.25848389,-57.85404000
85.30616760,-73.11610000
85.35385132,-62.64483000
85.40153503,-55.65238000
85.44921875,-55.06250000
85.49690247,-53.46451000
85.54458618,-56.77711000
85.59226990,-60.75900000
85.63995361,-51.90769000
85.68763733,-55.94359000
85.73532104,-69.99625000
85.78300476,-58.63297000
85.83068848,-63.39641000
85.87837219,-61.04572000
85.92605591,-54.74585000
85.97373962,-55.40286000
86.02142334,-63.80312000
86.06910706,-60.27705000
86.11679077,-65.63203000
86.16447449,-61.92314000
86.21215820,-55.64631000
86.25984192,-54.14425000
86.30752563,-67.73155000
86.35520935,-55.69530000
86.40289307,-59.18410000
86.45057678,-61.22169000
86.49826050,-68.60347000
86.54594421,-58.06454000
86.59362793,-55.28674000
86.64131165,-55.41565000
86.68899536,-58.33974000
86.73667908,-60.20467000
86.78436279,-60.57172000
86.83204651,-60.16479000
86.87973022,-55.98027000
86.92741394,-58.78335000
86.97509766,-57.42226000
87.02278137,-49.91314000
87.07046509,-53.36538000
87.11814880,-64.69508000
87.16583252,-63.05234000
87.21351624,-55.55027000
87.26119995,-55.55584000
87.30888367,-71.01512000
87.35656738,-56.63654000
87.40425110,-59.85267000
87.45193481,-62.39482000
87.49961853,-60.76952000
87.54730225,-58.61961000
87.59498596,-71.57990000
87.64266968,-61.82119000
87.69035339,-56.48041000
87.73803711,-55.57251000
87.78572083,-58.79318000
87.83340454,-68.69888000
87.88108826,-61.48512000
87.92877197,-61.98522000
87.97645569,-60.47354000
88.02413940,-52.78176000
88.07182312,-57.30852000
88.11950684,-65.54713000
88.16719055,-58.33691000
88.21487427,-60.36021000
88.26255798,-66.77497000
88.31024170,-65.11031000
88.35792542,-56.01379000
88.40560913,-51.05251000
88.45329285,-49.53783000
88.50097656,-52.03526000
88.54866028,-62.48873000
88.59634399,-55.59068000
88.64402771,-51.38491000
88.69171143,-51.98456000
88.73939514,-51.08425000
88.78707886,-51.23121000
88.83476257,-52.68488000
88.88244629,-52.30794000
88.93013000,-52.40411000
88.97781372,-55.42820000
89.02549744,-59.22865000
89.07318115,-51.81349000
89.12086487,-50.14689000
89.16854858,-49.86838000
89.21623230,-51.13212000
89.26391602,-56.76022000
89.31159973,-57.18547000
89.35928345,-53.49175000
89.40696716,-59.44847000
89.45465088,-61.32971000
89.50233459,-55.63124000
89.55001831,-57.48398000
89.59770203,-60.43639000
89.64538574,-60.37523000
89.69306946,-58.70564000
89.74075317,-60.14593000
89.78843689,-56.80837000
89.83612061,-60.77934000
89.88380432,-62.68501000
89.93148804,-53.56436000
89.97917175,-53.45433000
90.02685547,-56.27641000
90.07453918,-56.38172000
90.12222290,-57.52683000
90.16990662,-51.32314000
90.21759033,-55.99797000
90.26527405,-60.35540000
90.31295776,-59.85983000
90.36064148,-63.38616000
90.40832520,-63.38304000
90.45600891,-70.46561000
90.50369263,-67.77159000
90.55137634,-65.11124000
90.59906006,-63.71981000
90.64674377,-63.16900000
90.69442749,-56.25982000
90.74211121,-55.42243000
90.78979492,-60.19906000
90.83747864,-74.54959000
90.88516235,-63.03480000
90.93284607,-57.06049000
90.98052979,-53.53596000
91.02821350,-53.80499000
91.07589722,-58.20513000
91.12358093,-70.07829000
91.17126465,-67.86752000
91.21894836,-59.67127000
91.26663208,-57.80579000
91.31431580,-61.44627000
91.36199951,-66.78641000
91.40968323,-59.23325000
91.45736694,-56.18936000
91.50505066,-59.21112000
91.55273438,-59.35236000
91.60041809,-58.80472000
91.64810181,-58.45619000
91.69578552,-67.46384000
91.74346924,-61.57336000
91.79115295,-59.07152000
91.83883667,-58.33859000
91.88652039,-72.07783000
91.93420410,-62.08320000
91.98188782,-62.89766000
92.02957153,-64.74387000
92.07725525,-53.80579000
92.12493896,-54.07278000
92.17262268,-62.63571000
92.22030640,-54.70464000
92.26799011,-52.58186000
92.31567383,-55.75674000
92.36335754,-57.96574000
92.41104126,-57.41090000
92.45872498,-59.65184000
92.50640869,-57.85839000
92.55409241,-74.57612000
92.60177612,-51.56662000
92.64945984,-50.03568000
92.69714355,-52.63670000
92.74482727,-52.25214000
92.79251099,-50.87729000
92.84019470,-54.74159000
92.88787842,-64.13290000
92.93556213,-57.47581000
92.98324585,-61.12883000
93.03092957,-68.15266000
93.07861328,-63.46020000
93.12629700,-56.50344000
93.17398071,-59.74186000
93.22166443,-62.17895000
93.26934814,-55.13089000
93.31703186,-53.60839000
93.36471558,-55.39790000
93.41239929,-57.06815000
93.46008301,-58.24892000
93.50776672,-55.48777000
93.55545044,-51.58805000
93.60313416,-55.15406000
93.65081787,-66.42815000
93.69850159,-55.95673000
93.74618530,-57.12843000
93.79386902,-58.20936000
93.84155273,-56.43116000
93.88923645,-58.49442000
93.93692017,-57.81260000
93.98460388,-62.68539000
94.03228760,-56.85797000
94.07997131,-50.50478000
94.12765503,-54.75924000
94.17533875,-58.40905000
94.22302246,-52.15044000
94.27070618,-55.36047000
94.31838989,-54.52090000
94.36607361,-52.17312000
94.41375732,-62.19984000
94.46144104,-56.24810000
94.50912476,-52.52481000
94.55680847,-52.01823000
94.60449219,-52.36784000
94.65217590,-53.99060000
94.69985962,-54.40535000
94.74754333,-54.96828000
94.79522705,-61.15775000
94.84291077,-54.96109000
94.89059448,-59.13402000
94.93827820,-61.20277000
94.98596191,-52.57910000
95.03364563,-52.61526000
95.08132935,-56.73050000
95.12901306,-60.48084000
95.17669678,-56.71880000
95.22438049,-54.60640000
95.27206421,-55.21614000
95.31974792,-55.96857000
95.36743164,-58.70641000
95.41511536,-62.15376000
95.46279907,-64.47695000
95.51048279,-54.41063000
95.55816650,-52.19927000
95.60585022,-56.36972000
95.65353394,-62.88242000
95.70121765,-58.89884000
95.74890137,-56.59492000
95.79658508,-56.84209000
95.84426880,-58.59527000
95.89195251,-50.50304000
95.93963623,-50.64832000
95.98731995,-64.51689000
96.03500366,-49.72952000
96.08268738,-53.90488000
96.13037109,-51.68293000
96.17805481,-54.63920000
96.22573853,-58.30479000
96.27342224,-53.95266000
96.32110596,-54.81075000
96.36878967,-54.72267000
96.41647339,-52.81705000
96.46415710,-65.09103000
96.51184082,-55.71890000
96.55952454,-54.48721000
96.60720825,-58.07287000
96.65489197,-56.59736000
96.70257568,-58.23707000
96.75025940,-62.65331000
96.79794312,-56.82678000
96.84562683,-54.90971000
96.89331055,-62.08302000
96.94099426,-54.04906000
96.98867798,-51.56069000
97.03636169,-53.44225000
97.08404541,-62.03089000
97.13172913,-62.24078000
97.17941284,-58.45285000
97.22709656,-53.36053000
97.27478027,-62.32200000
97.32246399,-59.58678000
97.37014771,-59.24084000
97.41783142,-60.30973000
97.46551514,-56.50477000
97.51319885,-55.45262000
97.56088257,-57.41939000
97.60856628,-65.06614000
97.65625000,-66.91113000
97.70393372,-61.93600000
97.75161743,-65.48644000
97.79930115,-60.43856000
97.84698486,-55.73397000
97.89466858,-54.99851000
97.94235229,-51.61930000
97.99003601,-52.60965000
98.03771973,-54.60809000
98.08540344,-52.47137000
98.13308716,-55.86483000
98.18077087,-61.97443000
98.22845459,-60.11168000
98.27613831,-65.47986000
98.32382202,-57.62682000
98.37150574,-56.52872000
98.41918945,-64.80302000
98.46687317,-65.59515000
98.51455688,-63.23592000
98.56224060,-68.00253000
98.60992432,-63.38991000
98.65760803,-62.24413000
98.70529175,-57.17222000
98.75297546,-63.43235000
98.80065918,-58.71050000
98.84834290,-68.20808000
98.89602661,-59.77532000
98.94371033,-62.05261000
98.99139404,-57.07571000
99.03907776,-50.39386000
99.08676147,-53.57666000
99.13444519,-59.00853000
99.18212891,-52.61786000
99.22981262,-50.40824000
99.27749634,-59.06610000
99.32518005,-58.22117000
99.37286377,-55.54971000
99.42054749,-52.91718000
99.46823120,-52.25098000
99.51591492,-54.91625000
99.56359863,-55.69984000
99.61128235,-55.61405000
99.65896606,-63.41821000
99.70664978,-71.41686000
99.75433350,-70.04106000
99.80201721,-65.85831000
99.84970093,-58.43275000
99.89738464,-55.89663000
99.94506836,-54.75410000
99.99275208,-63.68806000
100.04043579,-62.03616000
100.08811951,-61.41458000
100.13580322,-62.11696000
100.18348694,-58.24321000
100.23117065,-50.39252000
100.27885437,-50.91393000
100.32653809,-54.81689000
100.37422180,-58.25844000
100.42190552,-70.21857000
100.46958923,-56.57524000
100.51727295,-55.27206000
100.56495667,-58.92208000
100.61264038,-57.17585000
100.66032410,-62.87075000
100.70800781,-67.38880000
100.75569153,-61.33879000
100.80337524,-58.75716000
100.85105896,-59.34957000
100.89874268,-62.90909000
100.94642639,-70.15298000
100.99411011,-60.64890000
101.04179382,-62.73396000
101.08947754,-68.15919000
101.13716125,-66.13946000
101.18484497,-56.02494000
101.23252869,-55.19077000
101.28021240,-54.73238000
101.32789612,-62.67223000
101.37557983,-55.06272000
101.42326355,-60.80333000
101.47094727,-54.71437000
101.51863098,-51.28265000
101.56631470,-55.55371000
101.61399841,-61.87799000
101.66168213,-62.08139000
101.70936584,-59.10622000
101.75704956,-57.86443000
101.80473328,-59.77013000
101.85241699,-58.57327000
101.90010071,-55.56519000
101.94778442,-55.57473000
101.99546814,-59.61443000
102.04315186,-61.45258000
102.09083557,-57.72685000
102.13851929,-61.22530000
102.18620300,-55.34201000
102.23388672,-55.75399000
102.28157043,-65.60098000
102.32925415,-58.49863000
102.37693787,-54.04761000
102.42462158,-57.63756000
102.47230530,-60.46307000
102.51998901,-56.64982000
102.56767273,-55.85651000
102.61535645,-58.57770000
102.66304016,-62.14465000
102.71072388,-63.02826000
102.75840759,-53.20917000
102.80609131,-50.74067000
102.85377502,-50.21965000
102.90145874,-49.67691000
102.94914246,-49.68346000
102.99682617,-51.02073000
103.04450989,-53.11288000
103.09219360,-56.16832000
103.13987732,-50.43031000
103.18756104,-49.34187000
103.23524475,-54.30730000
103.28292847,-61.47648000
103.33061218,-65.63910000
103.37829590,-60.84932000
103.42597961,-54.20758000
103.47366333,-53.79105000
103.52134705,-57.21951000
103.56903076,-58.41758000
103.61671448,-63.07770000
103.66439819,-57.21256000
103.71208191,-56.52898000
103.75976563,-68.33184000
103.80744934,-55.57926000
103.85513306,-55.95162000
103.90281677,-71.14664000
103.95050049,-69.97422000
103.99818420,-66.45636000
104.04586792,-65.58902000
104.09355164,-67.57650000
104.14123535,-84.23578000
104.18891907,-76.60310000
104.23660278,-66.24241000
104.28428650,-64.80332000
104.33197021,-62.74418000
104.37965393,-60.99979000
104.42733765,-58.16065000
104.47502136,-56.99451000
104.52270508,-68.03613000
104.57038879,-56.88393000
104.61807251,-58.67481000
104.66575623,-54.66715000
104.71343994,-55.42991000
104.76112366,-54.34790000
104.80880737,-53.64626000
104.85649109,-61.55771000
104.90417480,-67.31353000
104.95185852,-56.76028000
104.99954224,-51.67921000
105.04722595,-53.05369000
105.09490967,-53.95659000
105.14259338,-50.83452000
105.19027710,-53.70815000
105.23796082,-59.50809000
105.28564453,-62.45823000
105.33332825,-60.16745000
105.38101196,-65.66476000
105.42869568,-58.66079000
105.47637939,-64.54001000
105.52406311,-55.68039000
105.57174683,-54.04575000
105.61943054,-56.24960000
105.66711426,-60.10799000
105.71479797,-56.55936000
105.76248169,-53.41429000
105.81016541,-53.47701000
105.85784912,-56.70230000
105.90553284,-59.69170000
105.95321655,-58.59907000
106.00090027,-55.73650000
106.04858398,-50.68937000
106.09626770,-51.94273000
106.14395142,-59.74497000
106.19163513,-52.76617000
106.23931885,-53.20118000
106.28700256,-53.62528000
106.33468628,-50.83393000
106.38237000,-53.44854000
106.43005371,-55.90114000
106.47773743,-51.81404000
106.52542114,-53.39456000
106.57310486,-61.32498000
106.62078857,-59.52398000
106.66847229,-68.16945000
106.71615601,-53.54112000
106.76383972,-52.51217000
106.81152344,-56.40654000
106.85920715,-53.42701000
106.90689087,-66.15105000
106.95457458,-54.72792000
107.00225830,-52.21382000
107.04994202,-52.80489000
107.09762573,-54.16465000
107.14530945,-56.61055000
107.19299316,-51.02800000
107.24067688,-49.96588000
107.28836060,-59.68684000
107.33604431,-56.48199000
107.38372803,-58.68015000
107.43141174,-55.15395000
107.47909546,-60.67578000
107.52677917,-57.49059000
107.57446289,-54.76684000
107.62214661,-56.82825000
107.66983032,-54.97758000
107.71751404,-55.63181000
107.76519775,-58.25771000
107.81288147,-71.82646000
107.86056519,-60.13903000
107.90824890,-59.41398000
107.95593262,-62.69904000
108.00361633,-57.75013000
108.05130005,-53.18829000
108.09898376,-55.20020000
108.14666748,-53.88943000
108.19435120,-56.45205000
108.24203491,-60.46447000
108.28971863,-54.72666000
108.33740234,-53.91264000
108.38508606,-55.30688000
108.43276978,-56.59106000
108.48045349,-56.33155000
108.52813721,-53.26672000
108.57582092,-51.95781000
108.62350464,-55.46051000
108.67118835,-75.75963000
108.71887207,-55.15552000
108.76655579,-52.80548000
108.81423950,-55.13173000
108.86192322,-51.38467000
108.90960693,-49.84798000
108.95729065,-53.14002000
109.00497437,-60.69889000
109.05265808,-62.30135000
109.10034180,-57.18108000
109.14802551,-54.70186000
109.19570923,-56.47242000
109.24339294,-54.29741000
109.29107666,-55.06069000
109.33876038,-54.21290000
109.38644409,-56.92799000
109.43412781,-59.64305000
109.48181152,-57.90557000
109.52949524,-59.33544000
109.57717896,-62.66075000
109.62486267,-72.85586000
109.67254639,-61.34299000
109.72023010,-57.02047000
109.76791382,-61.03832000
109.81559753,-58.71759000
109.86328125,-57.62439000
109.91096497,-58.00666000
109.95864868,-63.11880000
110.00633240,-63.03043000
110.05401611,-55.46910000
110.10169983,-57.19267000
110.14938354,-70.41009000
110.19706726,-65.96360000
110.24475098,-63.32871000
110.29243469,-61.26054000
110.34011841,-59.24261000
110.38780212,-56.20731000
110.43548584,-55.29770000
110.48316956,-59.85295000
110.53085327,-62.04039000
110.57853699,-59.81033000
110.62622070,-64.59247000
110.67390442,-57.37285000
110.72158813,-61.48196000
110.76927185,-50.65582000
110.81695557,-49.77308000
110.86463928,-53.67566000
110.91232300,-53.64930000
110.96000671,-56.67531000
111.00769043,-57.79883000
111.05537415,-54.25366000
111.10305786,-55.71210000
111.15074158,-57.58726000
111.19842529,-62.10638000
111.24610901,-52.72952000
111.29379272,-57.85065000
111.34147644,-56.58471000
111.38916016,-55.35764000
111.43684387,-51.99445000
111.48452759,-55.60580000
111.53221130,-60.54255000
111.57989502,-56.85426000
111.62757874,-55.22224000
111.67526245,-66.34655000
111.72294617,-70.66651000
111.77062988,-60.49063000
111.81831360,-59.00429000
111.86599731,-63.65692000
111.91368103,-64.97709000
111.96136475,-54.15967000
112.00904846,-57.72092000
112.05673218,-62.15904000
112.10441589,-58.31228000
112.15209961,-60.06492000
112.19978333,-57.53042000
112.24746704,-62.58340000
112.29515076,-65.89066000
112.34283447,-58.83442000
112.39051819,-52.93027000
112.43820190,-53.16145000
112.48588562,-57.21431000
112.53356934,-57.43324000
112.58125305,-51.14346000
112.62893677,-48.45560000
112.67662048,-49.70430000
112.72430420,-52.45338000
112.77198792,-55.33187000
112.81967163,-56.32358000
112.86735535,-67.24106000
112.91503906,-56.97606000
112.96272278,-65.07349000
113.01040649,-61.07530000
113.05809021,-56.59232000
113.10577393,-57.04756000
113.15345764,-52.57761000
113.20114136,-51.43460000
113.24882507,-58.64399000
113.29650879,-58.39913000
113.34419250,-52.16401000
113.39187622,-53.51623000
113.43955994,-54.33113000
113.48724365,-52.58074000
113.53492737,-54.99804000
113.58261108,-61.59304000
113.63029480,-68.14633000
113.67797852,-62.85336000
113.72566223,-57.77254000
113.77334595,-60.82012000
113.82102966,-63.75652000
113.86871338,-59.89289000
113.91639709,-64.54447000
113.96408081,-61.29086000
114.01176453,-54.41938000
114.05944824,-53.25702000
114.10713196,-56.52946000
114.15481567,-62.10242000
114.20249939,-64.50168000
114.25018311,-59.41504000
114.29786682,-58.68179000
114.34555054,-75.40102000
114.39323425,-60.02127000
114.44091797,-58.33771000
114.48860168,-61.45015000
114.53628540,-52.30030000
114.58396912,-54.45371000
114.63165283,-62.68772000
114.67933655,-55.77051000
114.72702026,-57.05269000
114.77470398,-53.96004000
114.82238770,-64.62556000
114.87007141,-57.12416000
114.91775513,-58.88768000
114.96543884,-57.43356000
115.01312256,-52.18216000
115.06080627,-53.40730000
115.10848999,-59.07370000
115.15617371,-65.79734000
115.20385742,-65.06730000
115.25154114,-60.10001000
115.29922485,-60.58626000
115.34690857,-55.55584000
115.39459229,-55.33219000
115.44227600,-59.01809000
115.48995972,-57.21289000
115.53764343,-55.32839000
115.58532715,-58.21783000
115.63301086,-61.87228000
115.68069458,-73.65643000
115.72837830,-52.75104000
115.77606201,-53.87295000
115.82374573,-59.81511000
115.87142944,-52.85511000
115.91911316,-60.01480000
115.96679688,-75.12554000
116.01448059,-61.36619000
116.06216431,-59.24871000
116.10984802,-64.00818000
116.15753174,-56.95908000
116.20521545,-59.53584000
116.25289917,-65.73637000
116.30058289,-65.83739000
116.34826660,-57.22679000
116.39595032,-58.04243000
116.44363403,-66.17580000
116.49131775,-60.87544000
116.53900146,-57.41732000
116.58668518,-65.48048000
116.63436890,-70.26221000
116.68205261,-61.81663000
116.72973633,-54.11403000
116.77742004,-50.52691000
116.82510376,-50.45746000
116.87278748,-53.76770000
116.92047119,-49.48598000
116.96815491,-51.88782000
117.01583862,-53.29616000
117.06352234,-49.01402000
117.11120605,-51.67771000
117.15888977,-56.33892000
117.20657349,-58.64494000
117.25425720,-51.77609000
117.30194092,-53.53292000
117.34962463,-56.49912000
117.39730835,-58.93086000
117.44499207,-67.57100000
117.49267578,-52.23320000
117.54035950,-53.28374000
117.58804321,-62.62413000
117.63572693,-57.57860000
117.68341064,-54.15074000
117.73109436,-54.43705000
117.77877808,-57.93745000
117.82646179,-60.32001000
117.87414551,-58.55202000
117.92182922,-56.07862000
117.96951294,-55.84318000
118.01719666,-56.10970000
118.06488037,-54.28423000
118.11256409,-53.83667000
118.16024780,-61.34615000
118.20793152,-66.03464000
118.25561523,-56.46191000
118.30329895,-52.66111000
118.35098267,-52.51112000
118.39866638,-54.85303000
118.44635010,-60.10484000
118.49403381,-60.61218000
118.54171753,-57.13684000
118.58940125,-51.19511000
118.63708496,-49.27202000
118.68476868,-52.55779000
118.73245239,-54.85159000
118.78013611,-62.08889000
118.82781982,-57.71747000
118.87550354,-56.14532000
118.92318726,-57.27630000
118.97087097,-55.28437000
119.01855469,-58.27522000
119.06623840,-58.51539000
119.11392212,-56.54144000
119.16160583,-61.07978000
119.20928955,-57.44585000
119.25697327,-51.23303000
119.30465698,-48.40319000
119.35234070,-52.97798000
119.40002441,-61.63921000
119.44770813,-63.08131000
119.49539185,-53.44803000
119.54307556,-53.00564000
119.59075928,-59.91299000
119.63844299,-65.35226000
119.68612671,-55.10542000
119.73381042,-53.09166000
119.78149414,-61.25121000
119.82917786,-57.25290000
119.87686157,-54.09887000
119.92454529,-59.70578000
119.97222900,-58.20916000
120.01991272,-58.99107000
120.06759644,-72.79411000
120.11528015,-76.42606000
120.16296387,-61.66318000
120.21064758,-61.18200000
120.25833130,-65.18428000
120.30601501,-64.43970000
120.35369873,-56.58467000
120.40138245,-56.49840000
120.44906616,-63.64639000
120.49674988,-66.97209000
120.54443359,-73.51759000
120.59211731,-63.20159000
120.63980103,-62.51202000
120.68748474,-61.18018000
120.73516846,-59.10902000
120.78285217,-67.43051000
120.83053589,-57.00756000
120.87821960,-62.42638000
120.92590332,-57.42835000
120.97358704,-52.87731000
121.02127075,-53.85753000
121.06895447,-59.00778000
121.11663818,-59.69544000
121.16432190,-60.42805000
121.21200562,-53.73005000
121.25968933,-58.01503000
121.30737305,-55.29671000
121.35505676,-56.68666000
121.40274048,-59.89136000
121.45042419,-57.35783000
121.49810791,-55.39262000
121.54579163,-55.82352000
121.59347534,-55.54708000
121.64115906,-53.50252000
121.68884277,-57.89835000
121.73652649,-58.33167000
121.78421021,-53.97115000
121.83189392,-56.12150000
121.87957764,-56.56803000
121.92726135,-59.54294000
121.97494507,-66.46999000
122.02262878,-56.29367000
122.07031250,-51.26797000
122.11799622,-54.85024000
122.16567993,-60.07024000
122.21336365,-57.35986000
122.26104736,-65.71257000
122.30873108,-54.39636000
122.35641479,-59.42459000
122.40409851,-69.02734000
122.45178223,-58.13778000
122.49946594,-59.40816000
122.54714966,-64.22365000
122.59483337,-57.38801000
122.64251709,-54.79360000
122.69020081,-52.82645000
122.73788452,-50.63571000
122.78556824,-52.71654000
122.83325195,-65.55199000
122.88093567,-55.20242000
122.92861938,-52.85842000
122.97630310,-56.21443000
123.02398682,-64.27084000
123.07167053,-55.15248000
123.11935425,-50.10336000
123.16703796,-54.85421000
123.21472168,-63.36221000
123.26240540,-63.43323000
123.31008911,-66.46772000
123.35777283,-60.31659000
123.40545654,-61.34975000
123.45314026,-59.55709000
123.50082397,-57.04445000
123.54850769,-57.14935000
123.59619141,-64.52302000
123.64387512,-64.44835000
123.69155884,-67.14083000
123.73924255,-56.53188000
123.78692627,-55.06425000
123.83460999,-51.59703000
123.88229370,-48.99261000
123.92997742,-52.67819000
123.97766113,-57.90786000
124.02534485,-72.70411000
124.07302856,-54.12474000
124.12071228,-50.57687000
124.16839600,-52.09503000
124.21607971,-54.68458000
124.26376343,-53.64483000
124.31144714,-54.97353000
124.35913086,-59.53098000
124.40681458,-61.73984000
124.45449829,-59.19730000
124.50218201,-51.62672000
124.54986572,-54.75367000
124.59754944,-52.22427000
124.64523315,-50.72053000
124.69291687,-57.01903000
124.74060059,-70.24789000
124.78828430,-75.86036000
124.83596802,-59.35877000
124.88365173,-59.74822000
124.93133545,-65.58447000
124.97901917,-55.89145000
125.02670288,-54.60934000
125.07438660,-57.23660000
125.12207031,-59.90936000
125.16975403,-57.90669000
125.21743774,-59.11228000
125.26512146,-58.92769000
125.31280518,-54.36137000
125.36048889,-67.62772000
125.40817261,-58.59722000
125.45585632,-59.89235000
125.50354004,-53.59557000
125.55122375,-55.90716000
125.59890747,-60.09966000
125.64659119,-57.08697000
125.69427490,-61.16317000
125.74195862,-59.16611000
125.78964233,-55.74157000
125.83732605,-59.30211000
125.88500977,-61.22317000
125.93269348,-53.29690000
125.98037720,-58.13865000
126.02806091,-67.31813000
126.07574463,-63.09303000
126.12342834,-69.63160000
126.17111206,-56.28926000
126.21879578,-54.59834000
126.26647949,-63.30896000
126.31416321,-55.74383000
126.36184692,-60.24068000
126.40953064,-57.96575000
126.45721436,-64.33694000
126.50489807,-59.27746000
126.55258179,-53.72472000
126.60026550,-52.51592000
126.64794922,-56.64032000
126.69563293,-69.49672000
126.74331665,-59.43220000
126.79100037,-54.61986000
126.83868408,-60.54319000
126.88636780,-58.62208000
126.93405151,-53.27253000
126.98173523,-54.27610000
127.02941895,-58.09945000
127.07710266,-65.13053000
127.12478638,-69.71699000
127.17247009,-53.53699000
127.22015381,-50.19233000
127.26783752,-59.53360000
127.31552124,-55.36520000
127.36320496,-49.93306000
127.41088867,-51.67517000
127.45857239,-62.16970000
127.50625610,-63.02702000
127.55393982,-60.86145000
127.60162354,-55.80986000
127.64930725,-57.81969000
127.69699097,-77.42709000
127.74467468,-62.98883000
127.79235840,-66.56249000
127.84004211,-63.17699000
127.88772583,-58.54427000
127.93540955,-57.47726000
127.98309326,-58.74385000
128.03077698,-60.65808000
128.07846069,-59.52082000
128.12614441,-61.65788000
128.17382813,-63.71674000
128.22151184,-57.57206000
128.26919556,-52.44979000
128.31687927,-53.90049000
128.36456299,-64.38717000
128.41224670,-59.46298000
128.45993042,-52.96175000
128.50761414,-50.83080000
128.55529785,-51.20697000
128.60298157,-56.76503000
128.65066528,-59.42830000
128.69834900,-51.92503000
128.74603271,-56.61311000
128.79371643,-58.67239000
128.84140015,-60.02600000
128.88908386,-68.87237000
128.93676758,-55.39650000
128.98445129,-53.05126000
129.03213501,-51.80878000
129.07981873,-55.73080000
129.12750244,-58.26970000
129.17518616,-57.86259000
129.22286987,-58.24737000
129.27055359,-60.91131000
129.31823730,-57.93539000
129.36592102,-55.70908000
129.41360474,-58.23048000
129.46128845,-60.28561000
129.50897217,-53.71984000
129.55665588,-51.60472000
129.60433960,-57.37709000
129.65202332,-56.79676000
129.69970703,-55.50121000
129.74739075,-53.42006000
129.79507446,-55.10747000
129.84275818,-53.63319000
129.89044189,-57.90070000
129.93812561,-60.26003000
129.98580933,-53.82782000
130.03349304,-60.27085000
130.08117676,-66.64625000
130.12886047,-62.93946000
130.17654419,-58.28386000
130.22422791,-64.31635000
130.27191162,-58.30378000
130.31959534,-52.32729000
130.36727905,-55.63029000
130.41496277,-61.84758000
130.46264648,-53.65821000
130.51033020,-51.67616000
130.55801392,-53.88682000
130.60569763,-58.31168000
130.65338135,-58.61947000
130.70106506,-65.07761000
130.74874878,-61.96239000
130.79643250,-55.87770000
130.84411621,-52.33011000
130.89179993,-54.85168000
130.93948364,-59.52219000
130.98716736,-52.49591000
131.03485107,-51.86185000
131.08253479,-54.83758000
131.13021851,-58.97320000
131.17790222,-63.34501000
131.22558594,-56.35175000
131.27326965,-63.35094000
131.32095337,-63.86320000
131.36863708,-56.98655000
131.41632080,-53.28947000
131.46400452,-55.05874000
131.51168823,-66.24716000
131.55937195,-57.44205000
131.60705566,-63.68198000
131.65473938,-56.56414000
131.70242310,-54.44616000
131.75010681,-48.51255000
131.79779053,-51.41632000
131.84547424,-56.41195000
131.89315796,-54.35204000
131.94084167,-60.07866000
131.98852539,-55.50589000
132.03620911,-54.36226000
132.08389282,-52.55009000
132.13157654,-50.92608000
132.17926025,-53.97987000
132.22694397,-56.13103000
132.27462769,-52.36018000
132.32231140,-53.62131000
132.36999512,-52.47232000
132.41767883,-54.67671000
132.46536255,-57.42039000
132.51304626,-59.79821000
132.56072998,-63.03900000
132.60841370,-61.11835000
132.65609741,-57.89321000
132.70378113,-60.94110000
132.75146484,-57.59129000
132.79914856,-55.62016000
132.84683228,-64.72330000
132.89451599,-62.45271000
132.94219971,-57.70456000
132.98988342,-63.54042000
133.03756714,-60.38912000
133.08525085,-57.87419000
133.13293457,-57.75946000
133.18061829,-53.97486000
133.22830200,-55.29038000
133.27598572,-58.72876000
133.32366943,-49.36822000
133.37135315,-48.78804000
133.41903687,-56.44152000
133.46672058,-64.96307000
133.51440430,-64.03621000
133.56208801,-60.77351000
133.60977173,-68.02894000
133.65745544,-73.56675000
133.70513916,-71.17546000
133.75282288,-60.59303000
133.80050659,-59.05307000
133.84819031,-55.30807000
133.89587402,-60.09592000
133.94355774,-61.44377000
133.99124146,-55.21420000
134.03892517,-52.48117000
134.08660889,-57.06932000
134.13429260,-62.16566000
134.18197632,-57.67107000
134.22966003,-54.04924000
134.27734375,-50.18961000
134.32502747,-51.47569000
134.37271118,-56.10806000
134.42039490,-65.55785000
134.46807861,-53.47755000
134.51576233,-52.29324000
134.56344604,-56.07243000
134.61112976,-57.22742000
134.65881348,-61.14647000
134.70649719,-62.16616000
134.75418091,-66.22649000
134.80186462,-57.18812000
134.84954834,-56.17181000
134.89723206,-57.72123000
134.94491577,-56.39698000
134.99259949,-64.16827000
135.04028320,-69.51379000
135.08796692,-58.37483000
135.13565063,-54.43488000
135.18333435,-55.61275000
135.23101807,-62.62018000
135.27870178,-83.17320000
135.32638550,-56.56113000
135.37406921,-50.95835000
135.42175293,-54.94921000
135.46943665,-64.86881000
135.51712036,-55.03672000
135.56480408,-54.47327000
135.61248779,-54.27093000
135.66017151,-56.02187000
135.70785522,-60.03662000
135.75553894,-60.67244000
135.80322266,-63.51881000
135.85090637,-55.25293000
135.89859009,-61.46664000
135.94627380,-84.80714000
135.99395752,-67.72681000
136.04164124,-64.17816000
136.08932495,-51.83188000
136.13700867,-51.62552000
136.18469238,-55.68237000
136.23237610,-65.43028000
136.28005981,-54.71649000
136.32774353,-51.39555000
136.37542725,-50.94972000
136.42311096,-57.60387000
136.47079468,-51.88248000
136.51847839,-48.26970000
136.56616211,-51.56390000
136.61384583,-52.44989000
136.66152954,-52.13784000
136.70921326,-56.66090000
136.75689697,-55.36164000
136.80458069,-56.47031000
136.85226440,-68.29061000
136.89994812,-58.96735000
136.94763184,-54.76776000
136.99531555,-63.76236000
137.04299927,-51.59206000
137.09068298,-50.09163000
137.13836670,-54.37386000
137.18605042,-66.86248000
137.23373413,-67.59412000
137.28141785,-64.75005000
137.32910156,-66.13112000
137.37678528,-54.50733000
137.42446899,-52.53785000
137.47215271,-53.19332000
137.51983643,-51.10016000
137.56752014,-53.20490000
137.61520386,-63.02919000
137.66288757,-58.16924000
137.71057129,-58.40077000
137.75825500,-52.58966000
137.80593872,-57.42351000
137.85362244,-66.77446000
137.90130615,-61.69273000
137.94898987,-53.60841000
137.99667358,-52.86484000
138.04435730,-61.11102000
138.09204102,-64.25143000
138.13972473,-63.48000000
138.18740845,-60.83326000
138.23509216,-49.80907000
138.28277588,-47.89777000
138.33045959,-50.50040000
138.37814331,-54.98535000
138.42582703,-57.76904000
138.47351074,-57.49068000
138.52119446,-59.04988000
138.56887817,-67.60533000
138.61656189,-65.24250000
138.66424561,-57.79117000
138.71192932,-55.26554000
138.75961304,-55.63452000
138.80729675,-63.30029000
138.85498047,-55.70728000
138.90266418,-58.43731000
138.95034790,-58.57693000
138.99803162,-55.97316000
139.04571533,-56.96213000
139.09339905,-59.49791000
139.14108276,-60.81269000
139.18876648,-57.97229000
139.23645020,-55.55799000
139.28413391,-54.66716000
139.33181763,-55.91513000
139.37950134,-56.74475000
139.42718506,-63.32526000
139.47486877,-60.59430000
139.52255249,-56.48778000
139.57023621,-54.65401000
139.61791992,-53.69477000
139.66560364,-55.40411000
139.71328735,-55.65941000
139.76097107,-62.34351000
139.80865479,-56.64338000
139.85633850,-60.52615000
139.90402222,-60.11388000
139.95170593,-58.64767000
139.99938965,-63.40384000
140.04707336,-67.85883000
140.09475708,-70.18989000
140.14244080,-59.60075000
140.19012451,-52.30658000
140.23780823,-48.92041000
140.28549194,-52.59975000
140.33317566,-53.87129000
140.38085938,-53.26740000
140.42854309,-60.61411000
140.47622681,-55.75814000
140.52391052,-52.80943000
140.57159424,-58.16111000
140.61927795,-61.08197000
140.66696167,-68.27584000
140.71464539,-58.24311000
140.76232910,-56.98142000
140.81001282,-56.22526000
140.85769653,-65.67902000
140.90538025,-59.31999000
140.95306396,-56.30186000
141.00074768,-56.74925000
141.04843140,-59.60591000
141.09611511,-57.27396000
141.14379883,-62.57510000
141.19148254,-53.13230000
141.23916626,-50.05646000
141.28684998,-54.23562000
141.33453369,-56.04645000
141.38221741,-49.63404000
141.42990112,-49.58531000
141.47758484,-51.37096000
141.52526855,-54.96288000
141.57295227,-57.54623000
141.62063599,-55.27555000
141.66831970,-62.59041000
141.71600342,-63.55524000
141.76368713,-58.49061000
141.81137085,-59.30950000
141.85905457,-56.30314000
141.90673828,-60.78870000
141.95442200,-56.74912000
142.00210571,-58.80705000
142.04978943,-49.88406000
142.09747314,-48.11631000
142.14515686,-52.81125000
142.19284058,-53.23479000
142.24052429,-57.87088000
142.28820801,-53.59665000
142.33589172,-55.06847000
142.38357544,-66.23049000
142.43125916,-57.52044000
142.47894287,-54.47533000
142.52662659,-52.96035000
142.57431030,-63.05642000
142.62199402,-55.43964000
142.66967773,-59.67607000
142.71736145,-59.88835000
142.76504517,-57.88922000
142.81272888,-56.49448000
142.86041260,-55.91370000
142.90809631,-52.09205000
142.95578003,-51.48891000
143.00346375,-53.00443000
143.05114746,-56.77771000
143.09883118,-69.05145000
143.14651489,-61.52779000
143.19419861,-60.39311000
143.24188232,-56.87733000
143.28956604,-62.17541000
143.33724976,-60.97240000
143.38493347,-59.43147000
143.43261719,-56.00223000
143.48030090,-60.64178000
143.52798462,-55.03963000
143.57566833,-52.57325000
143.62335205,-53.97952000
143.67103577,-56.79360000
143.71871948,-70.07177000
143.76640320,-60.38786000
143.81408691,-55.33114000
143.86177063,-52.67633000
143.90945435,-51.64435000
143.95713806,-54.90493000
144.00482178,-55.41656000
144.05250549,-54.76664000
144.10018921,-53.50052000
144.14787292,-60.20832000
144.19555664,-70.99815000
144.24324036,-60.69411000
144.29092407,-52.28243000
144.33860779,-49.92532000
144.38629150,-54.65258000
144.43397522,-66.41810000
144.48165894,-58.67510000
144.52934265,-51.27657000
144.57702637,-51.86020000
144.62471008,-55.68578000
144.67239380,-62.68566000
144.72007751,-62.47646000
144.76776123,-61.14517000
144.81544495,-69.09157000
144.86312866,-56.96937000
144.91081238,-51.06453000
144.95849609,-51.26529000
145.00617981,-52.61472000
145.05386353,-53.78124000
145.10154724,-58.12058000
145.14923096,-57.01294000
145.19691467,-52.12909000
145.24459839,-49.70488000
145.29228210,-48.97427000
145.33996582,-50.85888000
145.38764954,-53.59948000
145.43533325,-54.56328000
145.48301697,-68.85405000
145.53070068,-65.72989000
145.57838440,-66.15272000
145.62606812,-55.06271000
145.67375183,-56.15102000
145.72143555,-59.25175000
145.76911926,-56.36472000
145.81680298,-60.63345000
145.86448669,-61.82924000
145.91217041,-64.53210000
145.95985413,-66.34972000
146.00753784,-57.18659000
146.05522156,-56.06469000
146.10290527,-65.49769000
146.15058899,-55.10893000
146.19827271,-52.12770000
146.24595642,-54.41509000
146.29364014,-58.93295000
146.34132385,-69.16069000
146.38900757,-60.15600000
146.43669128,-58.28461000
146.48437500,-59.28424000
146.53205872,-61.06009000
146.57974243,-62.26341000
146.62742615,-57.92709000
146.67510986,-58.31859000
146.72279358,-59.64775000
146.77047729,-54.02394000
146.81816101,-51.01553000
146.86584473,-52.94456000
146.91352844,-65.83786000
146.96121216,-58.36413000
147.00889587,-55.24879000
147.05657959,-62.48790000
147.10426331,-69.95794000
147.15194702,-61.31741000
147.19963074,-76.77107000
147.24731445,-55.22736000
147.29499817,-52.96579000
147.34268188,-60.46891000
147.39036560,-53.40492000
147.43804932,-54.69862000
147.48573303,-66.56682000
147.53341675,-52.73777000
147.58110046,-52.90485000
147.62878418,-56.18771000
147.67646790,-58.83358000
147.72415161,-59.55383000
147.77183533,-54.42162000
147.81951904,-51.15450000
147.86720276,-56.63622000
147.91488647,-60.98876000
147.96257019,-51.73787000
148.01025391,-50.80094000
148.05793762,-57.81885000
148.10562134,-67.48182000
148.15330505,-62.87216000
148.20098877,-80.20984000
148.24867249,-60.24950000
148.29635620,-59.42116000
148.34403992,-65.76071000
148.39172363,-61.00232000
148.43940735,-67.91318000
148.48709106,-52.81594000
148.53477478,-51.16910000
148.58245850,-57.74395000
148.63014221,-55.63161000
148.67782593,-55.09523000
148.72550964,-60.23922000
148.77319336,-65.22571000
148.82087708,-59.23912000
148.86856079,-59.04818000
148.91624451,-55.10231000
148.96392822,-52.85748000
149.01161194,-56.34175000
149.05929565,-53.36848000
149.10697937,-57.96816000
149.15466309,-53.90482000
149.20234680,-53.67368000
149.25003052,-68.83566000
149.29771423,-57.33976000
149.34539795,-56.72802000
149.39308167,-58.95398000
149.44076538,-59.48869000
149.48844910,-62.49386000
149.53613281,-64.31241000
149.58381653,-66.50741000
149.63150024,-55.61786000
149.67918396,-54.12791000
149.72686768,-54.12029000
149.77455139,-53.29715000
149.82223511,-63.85048000
149.86991882,-52.25841000
149.91760254,-48.99546000
149.96528625,-50.76453000
150.01296997,-54.97984000
150.06065369,-53.64771000
150.10833740,-51.79379000
150.15602112,-55.32956000
150.20370483,-64.90956000
150.25138855,-56.71596000
150.29907227,-70.06068000
150.34675598,-56.91702000
150.39443970,-57.01131000
150.44212341,-66.18211000
150.48980713,-54.72320000
150.53749084,-55.65609000
150.58517456,-61.29002000
150.63285828,-56.91849000
150.68054199,-52.41675000
150.72822571,-55.49710000
150.77590942,-56.21407000
150.82359314,-52.38972000
150.87127686,-52.19913000
150.91896057,-53.27160000
150.96664429,-58.33082000
151.01432800,-60.16442000
151.06201172,-55.05112000
151.10969543,-63.83762000
151.15737915,-70.31018000
151.20506287,-57.31728000
151.25274658,-53.11224000
151.30043030,-55.81750000
151.34811401,-61.12798000
151.39579773,-51.45758000
151.44348145,-54.70275000
151.49116516,-56.32831000
151.53884888,-54.63689000
151.58653259,-52.44061000
151.63421631,-54.54271000
151.68190002,-62.90556000
151.72958374,-58.62725000
151.77726746,-55.26537000
151.82495117,-56.91512000
151.87263489,-74.02211000
151.92031860,-65.15319000
151.96800232,-53.98162000
152.01568604,-51.95831000
152.06336975,-53.58456000
152.11105347,-52.11586000
152.15873718,-54.43226000
152.20642090,-57.25805000
152.25410461,-73.45496000
152.30178833,-57.03395000
152.34947205,-56.72709000
152.39715576,-54.76691000
152.44483948,-52.03062000
152.49252319,-54.25697000
152.54020691,-60.48150000
152.58789063,-56.58052000
152.63557434,-53.66574000
152.68325806,-58.28392000
152.73094177,-58.01321000
152.77862549,-63.84395000
152.82630920,-54.33540000
152.87399292,-51.10010000
152.92167664,-64.20325000
152.96936035,-53.18010000
153.01704407,-53.10636000
153.06472778,-60.60519000
153.11241150,-75.54449000
153.16009521,-60.40228000
153.20777893,-56.80828000
153.25546265,-66.55138000
153.30314636,-55.76114000
153.35083008,-54.12251000
153.39851379,-53.05163000
153.44619751,-55.03107000
153.49388123,-56.17015000
153.54156494,-56.78644000
153.58924866,-65.18187000
153.63693237,-60.13647000
153.68461609,-51.97372000
153.73229980,-50.18454000
153.77998352,-52.86896000
153.82766724,-56.32703000
153.87535095,-60.77147000
153.92303467,-68.71320000
153.97071838,-57.74638000
154.01840210,-51.75496000
154.06608582,-58.53104000
154.11376953,-58.15945000
154.16145325,-58.09664000
154.20913696,-58.76686000
154.25682068,-55.65234000
154.30450439,-51.69941000
154.35218811,-55.03798000
154.39987183,-56.76651000
154.44755554,-57.33257000
154.49523926,-57.66886000
154.54292297,-60.14611000
154.59060669,-68.00096000
154.63829041,-65.23109000
154.68597412,-67.79292000
154.73365784,-57.53043000
154.78134155,-53.09142000
154.82902527,-56.33973000
154.87670898,-73.10432000
154.92439270,-60.53318000
154.97207642,-74.85367000
155.01976013,-68.34969000
155.06744385,-63.80047000
155.11512756,-60.16100000
155.16281128,-56.62288000
155.21049500,-61.00446000
155.25817871,-63.45469000
155.30586243,-62.48145000
155.35354614,-61.38050000
155.40122986,-64.64350000
155.44891357,-59.01051000
155.49659729,-61.86264000
155.54428101,-57.73943000
155.59196472,-55.78012000
155.63964844,-56.56355000
155.68733215,-59.30567000
155.73501587,-60.62822000
155.78269958,-68.96428000
155.83038330,-54.86755000
155.87806702,-50.26670000
155.92575073,-51.17509000
155.97343445,-53.36713000
156.02111816,-56.36991000
156.06880188,-57.61409000
156.11648560,-53.64742000
156.16416931,-55.79235000
156.21185303,-61.45422000
156.25953674,-61.96956000
156.30722046,-64.15223000
156.35490417,-68.29356000
156.40258789,-63.63626000
156.45027161,-66.74016000
156.49795532,-67.32290000
156.54563904,-70.41548000
156.59332275,-66.10709000
156.64100647,-61.49877000
156.68869019,-53.47677000
156.73637390,-52.65442000
156.78405762,-64.10886000
156.83174133,-58.73109000
156.87942505,-70.04706000
156.92710876,-64.32022000
156.97479248,-67.61517000
157.02247620,-67.46462000
157.07015991,-65.67480000
157.11784363,-93.04711000
157.16552734,-67.97327000
157.21321106,-64.37560000
157.26089478,-67.70097000
157.30857849,-61.17336000
157.35626221,-56.73257000
157.40394592,-56.90039000
157.45162964,-54.70264000
157.49931335,-55.66246000
157.54699707,-62.57799000
157.59468079,-60.65319000
157.64236450,-54.32738000
157.69004822,-55.22337000
157.73773193,-62.97628000
157.78541565,-63.80098000
157.83309937,-59.11923000
157.88078308,-55.13797000
157.92846680,-53.39535000
157.97615051,-53.23237000
158.02383423,-53.07079000
158.07151794,-59.34645000
158.11920166,-61.38897000
158.16688538,-72.14131000
158.21456909,-54.56829000
158.26225281,-54.82462000
158.30993652,-58.52564000
158.35762024,-55.48309000
158.40530396,-58.64161000
158.45298767,-56.19303000
158.50067139,-56.08069000
158.54835510,-61.97036000
158.59603882,-54.06212000
158.64372253,-59.60771000
158.69140625,-64.84929000
158.73908997,-59.66253000
158.78677368,-66.42801000
158.83445740,-62.75802000
158.88214111,-70.49147000
158.92982483,-56.46522000
158.97750854,-60.55660000
159.02519226,-51.30321000
159.07287598,-48.56261000
159.12055969,-53.95502000
159.16824341,-63.70018000
159.21592712,-62.90556000
159.26361084,-58.05542000
159.31129456,-54.65437000
159.35897827,-55.90828000
159.40666199,-60.37665000
159.45434570,-60.88520000
159.50202942,-62.48287000
159.54971313,-60.27489000
159.59739685,-53.63377000
159.64508057,-53.24378000
159.69276428,-60.32930000
159.74044800,-58.25475000
159.78813171,-50.71111000
159.83581543,-52.73030000
159.88349915,-54.73168000
159.93118286,-53.97846000
159.97886658,-55.08799000
160.02655029,-54.51393000
160.07423401,-56.25145000
160.12191772,-61.27637000
160.16960144,-56.01292000
160.21728516,-55.51498000
160.26496887,-61.43626000
160.31265259,-52.81400000
160.36033630,-51.52824000
160.40802002,-50.54815000
160.45570374,-55.81382000
160.50338745,-58.78201000
160.55107117,-51.57419000
160.59875488,-54.51097000
160.64643860,-57.86004000
160.69412231,-60.96672000
160.74180603,-60.49316000
160.78948975,-52.77870000
160.83717346,-51.89960000
160.88485718,-54.33676000
160.93254089,-62.14654000
160.98022461,-60.04071000
161.02790833,-54.53073000
161.07559204,-54.34482000
161.12327576,-59.00433000
161.17095947,-75.86334000
161.21864319,-57.37999000
161.26632690,-59.48328000
161.31401062,-56.27462000
161.36169434,-51.63677000
161.40937805,-59.66767000
161.45706177,-53.20708000
161.50474548,-51.53986000
161.55242920,-55.13942000
161.60011292,-63.61928000
161.64779663,-57.84997000
161.69548035,-56.28770000
161.74316406,-71.38091000
161.79084778,-56.66245000
161.83853149,-54.51960000
161.88621521,-60.45687000
161.93389893,-58.06493000
161.98158264,-55.42401000
162.02926636,-58.63526000
162.07695007,-55.53179000
162.12463379,-50.75152000
162.17231750,-52.64948000
162.22000122,-64.34560000
162.26768494,-58.08580000
162.31536865,-59.95543000
162.36305237,-60.31115000
162.41073608,-52.09570000
162.45841980,-51.88995000
162.50610352,-56.82033000
162.55378723,-64.60781000
162.60147095,-60.69450000
162.64915466,-71.56222000
162.69683838,-54.67506000
162.74452209,-50.50337000
162.79220581,-50.86076000
162.83988953,-52.53550000
162.88757324,-59.08978000
162.93525696,-54.60749000
162.98294067,-53.95305000
163.03062439,-68.09097000
163.07830811,-62.68391000
163.12599182,-54.71174000
163.17367554,-53.52081000
163.22135925,-57.48641000
163.26904297,-60.37123000
163.31672668,-58.08206000
163.36441040,-59.23811000
163.41209412,-66.86043000
163.45977783,-52.58358000
163.50746155,-49.09741000
163.55514526,-50.75699000
163.60282898,-54.78527000
163.65051270,-57.85177000
163.69819641,-62.06070000
163.74588013,-55.98719000
163.79356384,-58.23337000
163.84124756,-57.79163000
163.88893127,-59.64505000
163.93661499,-65.08734000
163.98429871,-58.87243000
164.03198242,-55.16034000
164.07966614,-53.79623000
164.12734985,-57.43485000
164.17503357,-61.07067000
164.22271729,-60.77858000
164.27040100,-63.52744000
164.31808472,-58.07504000
164.36576843,-49.61327000
164.41345215,-50.51012000
164.46113586,-51.54694000
164.50881958,-54.56941000
164.55650330,-70.70515000
164.60418701,-56.02105000
164.65187073,-55.08362000
164.69955444,-62.63643000
164.74723816,-57.25173000
164.79492188,-58.32421000
164.84260559,-57.95661000
164.89028931,-53.20051000
164.93797302,-57.82186000
164.98565674,-61.19641000
165.03334045,-56.14946000
165.08102417,-66.77887000
165.12870789,-58.50422000
165.17639160,-59.22714000
165.22407532,-56.72191000
165.27175903,-64.34815000
165.31944275,-58.09080000
165.36712646,-65.25085000
165.41481018,-65.92998000
165.46249390,-56.43909000
165.51017761,-51.74615000
165.55786133,-53.38985000
165.60554504,-54.78025000
165.65322876,-52.82021000
165.70091248,-56.78289000
165.74859619,-52.84806000
165.79627991,-51.76645000
165.84396362,-56.60540000
165.89164734,-53.87909000
165.93933105,-54.09166000
165.98701477,-56.31987000
166.03469849,-55.11505000
166.08238220,-51.87419000
166.13006592,-50.41059000
166.17774963,-51.26236000
166.22543335,-51.89243000
166.27311707,-56.95466000
166.32080078,-74.46477000
166.36848450,-55.20321000
166.41616821,-52.86689000
166.46385193,-57.61105000
166.51153564,-59.17415000
166.55921936,-57.01621000
166.60690308,-59.55471000
166.65458679,-56.80831000
166.70227051,-51.01206000
166.74995422,-51.44649000
166.79763794,-55.76931000
166.84532166,-61.63154000
166.89300537,-69.73364000
166.94068909,-57.16869000
166.98837280,-58.65564000
167.03605652,-64.46221000
167.08374023,-60.96094000
167.13142395,-55.50798000
167.17910767,-59.58794000
167.22679138,-64.14674000
167.27447510,-58.88783000
167.32215881,-55.70404000
167.36984253,-52.71864000
167.41752625,-54.60735000
167.46520996,-53.02192000
167.51289368,-52.51323000
167.56057739,-60.40586000
167.60826111,-63.14572000
167.65594482,-53.90180000
167.70362854,-53.18314000
167.75131226,-57.71488000
167.79899597,-58.93681000
167.84667969,-50.98106000
167.89436340,-52.43037000
167.94204712,-65.25874000
167.98973083,-57.86143000
168.03741455,-57.01654000
168.08509827,-54.44461000
168.13278198,-49.99268000
168.18046570,-52.32203000
168.22814941,-56.37915000
168.27583313,-50.53819000
168.32351685,-53.78052000
168.37120056,-60.92168000
168.41888428,-52.89554000
168.46656799,-54.56364000
168.51425171,-57.01529000
168.56193542,-67.73579000
168.60961914,-54.83736000
168.65730286,-52.32037000
168.70498657,-54.53016000
168.75267029,-55.32467000
168.80035400,-55.21518000
168.84803772,-50.90359000
168.89572144,-48.49086000
168.94340515,-56.87597000
168.99108887,-57.78690000
169.03877258,-54.54105000
169.08645630,-58.19279000
169.13414001,-53.76354000
169.18182373,-51.61577000
169.22950745,-55.46885000
169.27719116,-64.86842000
169.32487488,-60.95813000
169.37255859,-64.27520000
169.42024231,-61.00095000
169.46792603,-69.80755000
169.51560974,-65.83182000
169.56329346,-61.79095000
169.61097717,-57.47747000
169.65866089,-53.22112000
169.70634460,-53.49072000
169.75402832,-54.88457000
169.80171204,-55.91374000
169.84939575,-74.24077000
169.89707947,-53.85959000
169.94476318,-54.12899000
169.99244690,-57.59615000
170.04013062,-59.89861000
170.08781433,-62.57581000
170.13549805,-53.86637000
170.18318176,-58.36131000
170.23086548,-59.77087000
170.27854919,-54.17012000
170.32623291,-54.22665000
170.37391663,-53.79996000
170.42160034,-52.59160000
170.46928406,-53.01503000
170.51696777,-55.44049000
170.56465149,-55.88185000
170.61233521,-61.97971000
170.66001892,-59.78107000
170.70770264,-55.87530000
170.75538635,-57.57264000
170.80307007,-77.28288000
170.85075378,-57.29012000
170.89843750,-60.03941000
170.94612122,-53.80233000
170.99380493,-53.51921000
171.04148865,-53.31432000
171.08917236,-52.94449000
171.13685608,-55.93944000
171.18453979,-54.20690000
171.23222351,-54.01371000
171.27990723,-56.51627000
171.32759094,-56.87625000
171.37527466,-54.08717000
171.42295837,-52.35029000
171.47064209,-55.01889000
171.51832581,-64.83710000
171.56600952,-56.52955000
171.61369324,-54.99973000
171.66137695,-56.98372000
171.70906067,-70.34908000
171.75674438,-55.27151000
171.80442810,-52.87222000
171.85211182,-51.85178000
171.89979553,-51.78497000
171.94747925,-54.03964000
171.99516296,-57.90240000
172.04284668,-59.03521000
172.09053040,-54.67079000
172.13821411,-51.70679000
172.18589783,-56.42393000
172.23358154,-60.46372000
172.28126526,-56.13734000
172.32894897,-55.68495000
172.37663269,-54.62262000
172.42431641,-54.01215000
172.47200012,-54.70720000
172.51968384,-56.74107000
172.56736755,-59.12468000
172.61505127,-69.43185000
172.66273499,-71.12003000
172.71041870,-64.23515000
172.75810242,-62.23602000
172.80578613,-59.10038000
172.85346985,-57.95918000
172.90115356,-63.69017000
172.94883728,-55.60131000
172.99652100,-52.24941000
173.04420471,-52.55298000
173.09188843,-51.22340000
173.13957214,-49.42873000
173.18725586,-51.40106000
173.23493958,-63.47749000
173.28262329,-55.32749000
173.33030701,-53.79440000
173.37799072,-59.76694000
173.42567444,-51.69882000
173.47335815,-49.82696000
173.52104187,-50.44648000
173.56872559,-51.82735000
173.61640930,-53.64151000
173.66409302,-58.30363000
173.71177673,-67.68500000
173.75946045,-55.10320000
173.80714417,-51.99721000
173.85482788,-53.11031000
173.90251160,-59.89696000
173.95019531,-66.41717000
173.99787903,-61.66727000
174.04556274,-58.64452000
174.09324646,-59.37521000
174.14093018,-55.56133000
174.18861389,-65.96218000
174.23629761,-54.93250000
174.28398132,-52.60762000
174.33166504,-54.41853000
174.37934875,-55.34778000
174.42703247,-54.32408000
174.47471619,-58.12212000
174.52239990,-56.71540000
174.57008362,-55.99779000
174.61776733,-60.35248000
174.66545105,-70.00283000
174.71313477,-72.94093000
174.76081848,-63.11551000
174.80850220,-58.70834000
174.85618591,-61.27102000
174.90386963,-61.96298000
174.95155334,-60.63634000
174.99923706,-54.45272000
175.04692078,-55.24670000
175.09460449,-61.79831000
175.14228821,-60.13792000
175.18997192,-57.60794000
175.23765564,-59.28608000
175.28533936,-55.13811000
175.33302307,-54.22570000
175.38070679,-64.48921000
175.42839050,-54.86327000
175.47607422,-51.27766000
175.52375793,-53.70947000
175.57144165,-62.19810000
175.61912537,-64.12035000
175.66680908,-59.66954000
175.71449280,-63.55469000
175.76217651,-61.69386000
175.80986023,-62.41924000
175.85754395,-53.59996000
175.90522766,-53.69384000
175.95291138,-53.09082000
176.00059509,-56.22465000
176.04827881,-70.05838000
176.09596252,-54.13907000
176.14364624,-51.46221000
176.19132996,-56.36684000
176.23901367,-55.74749000
176.28669739,-52.88100000
176.33438110,-55.49424000
176.38206482,-67.12712000
176.42974854,-64.49172000
176.47743225,-61.19367000
176.52511597,-58.82684000
176.57279968,-54.67188000
176.62048340,-61.43066000
176.66816711,-64.06166000
176.71585083,-57.78383000
176.76353455,-60.99242000
176.81121826,-52.46373000
176.85890198,-52.87685000
176.90658569,-60.26211000
176.95426941,-55.44007000
177.00195313,-57.77401000
177.04963684,-57.67140000
177.09732056,-60.44964000
177.14500427,-59.64251000
177.19268799,-56.25619000
177.24037170,-55.59320000
177.28805542,-56.58350000
177.33573914,-64.82018000
177.38342285,-58.60042000
177.43110657,-54.99754000
177.47879028,-52.70773000
177.52647400,-55.60980000
177.57415771,-56.78375000
177.62184143,-55.44656000
177.66952515,-55.22692000
177.71720886,-56.08480000
177.76489258,-54.86275000
177.81257629,-51.42079000
177.86026001,-55.38359000
177.90794373,-53.19003000
177.95562744,-53.53544000
178.00331116,-57.03004000
178.05099487,-57.93125000
178.09867859,-54.90127000
178.14636230,-54.81894000
178.19404602,-63.08433000
178.24172974,-58.38113000
178.28941345,-53.76351000
178.33709717,-52.94687000
178.38478088,-53.29584000
178.43246460,-53.12230000
178.48014832,-55.13855000
178.52783203,-54.44806000
178.57551575,-54.25010000
178.62319946,-56.95626000
178.67088318,-58.74546000
178.71856689,-63.29235000
178.76625061,-58.05492000
178.81393433,-62.44411000
178.86161804,-54.68998000
178.90930176,-57.88773000
178.95698547,-74.85037000
179.00466919,-58.16324000
179.05235291,-55.61380000
179.10003662,-55.95272000
179.14772034,-56.35933000
179.19540405,-59.30315000
179.24308777,-68.47175000
179.29077148,-67.26478000
179.33845520,-56.66129000
179.38613892,-51.65094000
179.43382263,-57.81167000
179.48150635,-58.55430000
179.52919006,-52.08208000
179.57687378,-52.50686000
179.62455750,-56.17152000
179.67224121,-56.75371000
179.71992493,-55.63654000
179.76760864,-57.94311000
179.81529236,-55.26108000
179.86297607,-53.65379000
179.91065979,-53.27777000
179.95834351,-54.83266000
180.00602722,-56.70709000
180.05371094,-70.00787000
180.10139465,-60.23983000
180.14907837,-73.19138000
180.19676208,-55.70814000
180.24444580,-54.55849000
180.29212952,-53.31794000
180.33981323,-56.60520000
180.38749695,-70.68499000
180.43518066,-63.45577000
180.48286438,-58.49972000
180.53054810,-56.39184000
180.57823181,-68.35869000
180.62591553,-59.33840000
180.67359924,-55.83199000
180.72128296,-56.70462000
180.76896667,-73.34649000
180.81665039,-54.09317000
180.86433411,-52.48814000
180.91201782,-54.56329000
180.95970154,-52.95119000
181.00738525,-54.44592000
181.05506897,-61.17696000
181.10275269,-61.16865000
181.15043640,-59.48434000
181.19812012,-67.48952000
181.24580383,-63.70630000
181.29348755,-52.94466000
181.34117126,-51.32649000
181.38885498,-54.52456000
181.43653870,-59.57735000
181.48422241,-56.77016000
181.53190613,-57.76115000
181.57958984,-62.35620000
181.62727356,-60.60429000
181.67495728,-51.58268000
181.72264099,-51.78230000
181.77032471,-64.11954000
181.81800842,-57.06460000
181.86569214,-53.36216000
181.91337585,-50.28526000
181.96105957,-52.35791000
182.00874329,-67.36314000
182.05642700,-57.43678000
182.10411072,-57.14260000
182.15179443,-60.75578000
182.19947815,-63.17842000
182.24716187,-60.58586000
182.29484558,-57.93875000
182.34252930,-62.37946000
182.39021301,-57.26815000
182.43789673,-54.40279000
182.48558044,-53.17240000
182.53326416,-53.55923000
182.58094788,-69.59769000
182.62863159,-49.71564000
182.67631531,-51.61875000
182.72399902,-56.03992000
182.77168274,-53.08826000
182.81936646,-60.77842000
182.86705017,-67.22991000
182.91473389,-58.29530000
182.96241760,-58.78902000
183.01010132,-63.42634000
183.05778503,-61.44949000
183.10546875,-57.28131000
183.15315247,-55.30970000
183.20083618,-56.92826000
183.24851990,-51.62128000
183.29620361,-55.48500000
183.34388733,-57.29255000
183.39157104,-49.66780000
183.43925476,-49.32965000
183.48693848,-53.42630000
183.53462219,-53.95590000
183.58230591,-51.95076000
183.62998962,-59.03447000
183.67767334,-57.01771000
183.72535706,-51.87066000
183.77304077,-51.61330000
183.82072449,-67.06070000
183.86840820,-54.90143000
183.91609192,-60.47747000
183.96377563,-63.80254000
184.01145935,-65.69413000
184.05914307,-56.67585000
184.10682678,-52.81491000
184.15451050,-53.60443000
184.20219421,-54.25262000
184.24987793,-55.31301000
184.29756165,-57.99951000
184.34524536,-51.65965000
184.39292908,-50.34570000
184.44061279,-52.59497000
184.48829651,-52.96152000
184.53598022,-54.11663000
184.58366394,-54.58139000
184.63134766,-61.34315000
184.67903137,-60.58347000
184.72671509,-58.09547000
184.77439880,-66.22043000
184.82208252,-71.45274000
184.86976624,-60.30599000
184.91744995,-57.90783000
184.96513367,-59.13130000
185.01281738,-59.55936000
185.06050110,-63.07008000
185.10818481,-57.20509000
185.15586853,-53.60893000
185.20355225,-52.56603000
185.25123596,-59.00539000
185.29891968,-56.99303000
185.34660339,-57.81763000
185.39428711,-68.69346000
185.44197083,-56.78341000
185.48965454,-60.14721000
185.53733826,-59.47180000
185.58502197,-54.61940000
185.63270569,-53.51967000
185.68038940,-56.68538000
185.72807312,-52.84855000
185.77575684,-57.02282000
185.82344055,-57.08082000
185.87112427,-51.62303000
185.91880798,-52.56833000
185.96649170,-66.75439000
186.01417542,-65.26241000
186.06185913,-57.09930000
186.10954285,-56.08920000
186.15722656,-63.68430000
186.20491028,-64.85507000
186.25259399,-65.01657000
186.30027771,-60.92278000
186.34796143,-52.91115000
186.39564514,-52.80937000
186.44332886,-58.86746000
186.49101257,-72.27138000
186.53869629,-63.05233000
186.58638000,-59.24976000
186.63406372,-70.00224000
186.68174744,-52.58213000
186.72943115,-53.06906000
186.77711487,-65.40672000
186.82479858,-59.92054000
186.87248230,-60.67155000
186.92016602,-62.73347000
186.96784973,-58.46683000
187.01553345,-55.18898000
187.06321716,-54.73091000
187.11090088,-56.63875000
187.15858459,-59.04101000
187.20626831,-52.97417000
187.25395203,-52.89486000
187.30163574,-57.96009000
187.34931946,-52.69021000
187.39700317,-49.23874000
187.44468689,-52.94328000
187.49237061,-59.01230000
187.54005432,-58.50118000
187.58773804,-58.29070000
187.63542175,-59.80239000
187.68310547,-63.46042000
187.73078918,-58.84963000
187.77847290,-56.70162000
187.82615662,-50.83460000
187.87384033,-49.18963000
187.92152405,-52.01544000
187.96920776,-58.46102000
188.01689148,-62.74599000
188.06457520,-55.29394000
188.11225891,-51.32956000
188.15994263,-52.27694000
188.20762634,-70.89798000
188.25531006,-55.72031000
188.30299377,-59.10681000
188.35067749,-60.57809000
188.39836121,-59.32833000
188.44604492,-54.89960000
188.49372864,-51.70046000
188.54141235,-52.02841000
188.58909607,-54.04789000
188.63677979,-55.43450000
188.68446350,-62.97615000
188.73214722,-64.00260000
188.77983093,-57.09083000
188.82751465,-56.00928000
188.87519836,-60.51051000
188.92288208,-73.78295000
188.97056580,-77.00857000
189.01824951,-57.08630000
189.06593323,-49.97347000
189.11361694,-48.42845000
189.16130066,-51.16809000
189.20898438,-59.98016000
189.25666809,-73.67859000
189.30435181,-60.00029000
189.35203552,-61.60208000
189.39971924,-60.16155000
189.44740295,-59.56246000
189.49508667,-55.30884000
189.54277039,-59.64117000
189.59045410,-55.46721000
189.63813782,-51.90565000
189.68582153,-52.40736000
189.73350525,-58.26683000
189.78118896,-61.08143000
189.82887268,-59.02906000
189.87655640,-58.72751000
189.92424011,-54.52214000
189.97192383,-66.51139000
190.01960754,-58.86209000
190.06729126,-55.62434000
190.11497498,-57.14041000
190.16265869,-65.22914000
190.21034241,-55.68878000
190.25802612,-53.93181000
190.30570984,-57.10175000
190.35339355,-57.13804000
190.40107727,-53.71594000
190.44876099,-54.35633000
190.49644470,-59.16895000
190.54412842,-63.09735000
190.59181213,-56.27821000
190.63949585,-57.73693000
190.68717957,-53.84748000
190.73486328,-52.08401000
190.78254700,-56.42997000
190.83023071,-66.21110000
190.87791443,-54.66459000
190.92559814,-54.39412000
190.97328186,-58.83630000
191.02096558,-56.71362000
191.06864929,-54.18388000
191.11633301,-52.91978000
191.16401672,-54.61809000
191.21170044,-60.81075000
191.25938416,-53.94394000
191.30706787,-51.10886000
191.35475159,-59.38718000
191.40243530,-61.52479000
191.45011902,-67.02682000
191.49780273,-61.53401000
191.54548645,-56.74379000
191.59317017,-54.56396000
191.64085388,-55.24497000
191.68853760,-57.36694000
191.73622131,-54.72931000
191.78390503,-52.25365000
191.83158875,-53.30669000
191.87927246,-54.40063000
191.92695618,-56.91003000
191.97463989,-70.32880000
192.02232361,-58.27908000
192.07000732,-53.19527000
192.11769104,-56.02863000
192.16537476,-53.96247000
192.21305847,-53.15475000
192.26074219,-60.40019000
192.30842590,-66.18230000
192.35610962,-59.82364000
192.40379333,-59.08500000
192.45147705,-89.77036000
192.49916077,-57.12913000
192.54684448,-54.32461000
192.59452820,-53.05241000
192.64221191,-51.50676000
192.68989563,-50.76090000
192.73757935,-50.69407000
192.78526306,-52.31989000
192.83294678,-63.58679000
192.88063049,-55.40849000
192.92831421,-56.44888000
192.97599792,-58.49780000
193.02368164,-57.46614000
193.07136536,-59.26206000
193.11904907,-53.99059000
193.16673279,-55.23948000
193.21441650,-53.00716000
193.26210022,-52.91082000
193.30978394,-61.62356000
193.35746765,-75.12424000
193.40515137,-69.23481000
193.45283508,-69.49771000
193.50051880,-54.33510000
193.54820251,-52.15797000
193.59588623,-57.54301000
193.64356995,-58.73312000
193.69125366,-65.61807000
193.73893738,-55.46534000
193.78662109,-53.53400000
193.83430481,-49.66042000
193.88198853,-52.54425000
193.92967224,-54.69672000
193.97735596,-51.14692000
194.02503967,-56.43951000
194.07272339,-59.79688000
194.12040710,-51.48912000
194.16809082,-48.07211000
194.21577454,-48.10940000
194.26345825,-50.77757000
194.31114197,-53.42829000
194.35882568,-62.47387000
194.40650940,-62.98523000
194.45419312,-55.95213000
194.50187683,-56.34795000
194.54956055,-59.98107000
194.59724426,-64.33602000
194.64492798,-57.39833000
194.69261169,-48.50014000
194.74029541,-46.01302000
194.78797913,-47.94080000
194.83566284,-55.81993000
194.88334656,-60.72816000
194.93103027,-55.23441000
194.97871399,-58.41519000
195.02639771,-55.45250000
195.07408142,-53.22229000
195.12176514,-56.05011000
195.16944885,-59.70541000
195.21713257,-62.01868000
195.26481628,-53.04900000
