Frequency,Channel B
(kHz),(dBu)

0.00000000,-26.30041000
0.04768372,-34.06128000
0.09536743,-51.84726000
0.14305115,-43.16658000
0.19073486,-46.38514000
0.23841858,-52.39395000
0.28610229,-61.86917000
0.33378601,-59.43985000
0.38146973,-58.94387000
0.42915344,-52.55828000
0.47683716,-52.81464000
0.52452087,-52.43671000
0.57220459,-51.86281000
0.61988831,-56.39750000
0.66757202,-68.17847000
0.71525574,-55.60827000
0.76293945,-56.79778000
0.81062317,-64.43411000
0.85830688,-62.63462000
0.90599060,-61.11414000
0.95367432,-54.67644000
1.00135803,-57.56256000
1.04904175,-56.99749000
1.09672546,-57.16811000
1.14440918,-54.38560000
1.19209290,-50.04788000
1.23977661,-52.53960000
1.28746033,-55.19929000
1.33514404,-55.33729000
1.38282776,-60.84963000
1.43051147,-61.83007000
1.47819519,-60.92626000
1.52587891,-55.64174000
1.57356262,-66.45219000
1.62124634,-53.01937000
1.66893005,-56.78504000
1.71661377,-59.57501000
1.76429749,-55.26289000
1.81198120,-58.97178000
1.85966492,-64.17548000
1.90734863,-58.47230000
1.95503235,-55.05778000
2.00271606,-57.25745000
2.05039978,-61.20529000
2.09808350,-74.51151000
2.14576721,-64.16891000
2.19345093,-63.65340000
2.24113464,-52.70769000
2.28881836,-53.49186000
2.33650208,-56.14969000
2.38418579,-54.36148000
2.43186951,-54.97355000
2.47955322,-53.61250000
2.52723694,-55.99598000
2.57492065,-65.26626000
2.62260437,-59.49637000
2.67028809,-52.43987000
2.71797180,-57.96179000
2.76565552,-61.24427000
2.81333923,-55.88888000
2.86102295,-51.23861000
2.90870667,-48.41308000
2.95639038,-60.77518000
3.00407410,-51.99734000
3.05175781,-55.42109000
3.09944153,-62.52134000
3.14712524,-55.20821000
3.19480896,-62.30554000
3.24249268,-51.91544000
3.29017639,-49.33906000
3.33786011,-51.15164000
3.38554382,-54.14778000
3.43322754,-55.43484000
3.48091125,-57.79495000
3.52859497,-58.06454000
3.57627869,-55.92999000
3.62396240,-54.59223000
3.67164612,-58.68690000
3.71932983,-64.31381000
3.76701355,-61.62086000
3.81469727,-54.05014000
3.86238098,-53.10835000
3.91006470,-58.50353000
3.95774841,-62.34295000
4.00543213,-56.93269000
4.05311584,-60.95479000
4.10079956,-55.59982000
4.14848328,-62.77351000
4.19616699,-61.68219000
4.24385071,-57.02372000
4.29153442,-52.72379000
4.33921814,-52.39404000
4.38690186,-53.02181000
4.43458557,-58.81577000
4.48226929,-72.13837000
4.52995300,-58.56087000
4.57763672,-58.58803000
4.62532043,-61.68634000
4.67300415,-52.47413000
4.72068787,-54.94720000
4.76837158,-56.46638000
4.81605530,-52.76726000
4.86373901,-54.56211000
4.91142273,-55.14061000
4.95910645,-49.47673000
5.00679016,-58.15304000
5.05447388,-73.70840000
5.10215759,-52.39964000
5.14984131,-67.10364000
5.19752502,-55.19223000
5.24520874,-62.51877000
5.29289246,-51.33569000
5.34057617,-57.87407000
5.38825989,-53.63388000
5.43594360,-53.87068000
5.48362732,-50.41513000
5.53131104,-44.48928000
5.57899475,-53.35441000
5.62667847,-48.18180000
5.67436218,-48.04855000
5.72204590,-55.74119000
5.76972961,-48.86700000
5.81741333,-55.57310000
5.86509705,-49.05788000
5.91278076,-52.35539000
5.96046448,-45.86930000
6.00814819,-50.75680000
6.05583191,-47.62225000
6.10351563,-49.40850000
6.15119934,-45.60396000
6.19888306,-47.19113000
6.24656677,-45.71628000
6.29425049,-46.17195000
6.34193420,-43.76402000
6.38961792,-42.92374000
6.43730164,-42.89317000
6.48498535,-42.71023000
6.53266907,-40.03230000
6.58035278,-38.17886000
6.62803650,-36.98767000
6.67572021,-34.88391000
6.72340393,-34.01256000
6.77108765,-29.41075000
6.81877136,-26.40046000
6.86645508,-17.53377000
6.91413879,-10.67801000
6.96182251,-6.39102100
7.00950623,-7.09811100
7.05718994,-12.29555000
7.10487366,-19.53192000
7.15255737,-25.83866000
7.20024109,-26.98044000
7.24792480,-30.21823000
7.29560852,-29.82514000
7.34329224,-30.20426000
7.39097595,-31.26407000
7.43865967,-30.89676000
7.48634338,-30.95189000
7.53402710,-29.43621000
7.58171082,-29.38318000
7.62939453,-27.43969000
7.67707825,-24.80583000
7.72476196,-20.64595000
7.77244568,-15.08306000
7.82012939,-11.37877000
7.86781311,-10.89930000
7.91549683,-13.87363000
7.96318054,-19.54853000
8.01086426,-25.53517000
8.05854797,-29.43990000
8.10623169,-33.20027000
8.15391541,-35.27176000
8.20159912,-37.06046000
8.24928284,-37.53712000
8.29696655,-40.50925000
8.34465027,-41.85620000
8.39233398,-42.41489000
8.44001770,-44.05155000
8.48770142,-44.16953000
8.53538513,-43.54813000
8.58306885,-48.78419000
8.63075256,-46.49274000
8.67843628,-47.94767000
8.72612000,-46.95721000
8.77380371,-53.04467000
8.82148743,-51.08048000
8.86917114,-51.24894000
8.91685486,-46.24735000
8.96453857,-59.31386000
9.01222229,-52.43572000
9.05990601,-46.63445000
9.10758972,-46.63618000
9.15527344,-63.41973000
9.20295715,-54.24339000
9.25064087,-55.83298000
9.29832458,-53.87716000
9.34600830,-54.75725000
9.39369202,-57.68352000
9.44137573,-52.05968000
9.48905945,-57.38076000
9.53674316,-49.65324000
9.58442688,-53.93198000
9.63211060,-57.03668000
9.67979431,-53.36294000
9.72747803,-54.43589000
9.77516174,-57.30862000
9.82284546,-51.18330000
9.87052917,-57.30248000
9.91821289,-57.87355000
9.96589661,-54.73483000
10.01358032,-54.00097000
10.06126404,-54.71904000
10.10894775,-54.79255000
10.15663147,-61.91489000
10.20431519,-55.65977000
10.25199890,-49.77324000
10.29968262,-56.36450000
10.34736633,-53.62125000
10.39505005,-57.13738000
10.44273376,-58.42204000
10.49041748,-53.27694000
10.53810120,-49.67538000
10.58578491,-57.14563000
10.63346863,-59.68598000
10.68115234,-56.93137000
10.72883606,-58.40664000
10.77651978,-59.67575000
10.82420349,-60.62353000
10.87188721,-61.35056000
10.91957092,-53.60239000
10.96725464,-55.71699000
11.01493835,-54.40315000
11.06262207,-59.02594000
11.11030579,-57.28911000
11.15798950,-64.49592000
11.20567322,-54.02695000
11.25335693,-52.99606000
11.30104065,-58.21517000
11.34872437,-69.54293000
11.39640808,-56.35868000
11.44409180,-60.17103000
11.49177551,-67.74305000
11.53945923,-59.59845000
11.58714294,-64.18367000
11.63482666,-54.13367000
11.68251038,-64.92004000
11.73019409,-60.13237000
11.77787781,-54.64602000
11.82556152,-53.21111000
11.87324524,-51.92235000
11.92092896,-63.04111000
11.96861267,-63.63694000
12.01629639,-57.59702000
12.06398010,-57.89368000
12.11166382,-59.65488000
12.15934753,-54.68947000
12.20703125,-60.11456000
12.25471497,-59.48299000
12.30239868,-63.05077000
12.35008240,-54.63851000
12.39776611,-58.36901000
12.44544983,-61.44906000
12.49313354,-54.27753000
12.54081726,-56.44195000
12.58850098,-70.07167000
12.63618469,-56.50253000
12.68386841,-59.19546000
12.73155212,-52.81384000
12.77923584,-55.49052000
12.82691956,-59.18753000
12.87460327,-52.53144000
12.92228699,-54.19956000
12.96997070,-64.31346000
13.01765442,-62.16867000
13.06533813,-61.60853000
13.11302185,-63.68185000
13.16070557,-74.44250000
13.20838928,-67.15053000
13.25607300,-61.18722000
13.30375671,-59.81379000
13.35144043,-59.25954000
13.39912415,-55.24187000
13.44680786,-62.39679000
13.49449158,-52.73176000
13.54217529,-51.31952000
13.58985901,-56.62667000
13.63754272,-64.70970000
13.68522644,-58.17667000
13.73291016,-52.84432000
13.78059387,-52.55222000
13.82827759,-49.00764000
13.87596130,-47.12805000
13.92364502,-44.75768000
13.97132874,-43.24583000
14.01901245,-45.02575000
14.06669617,-49.29943000
14.11437988,-48.75340000
14.16206360,-49.20583000
14.20974731,-52.49274000
14.25743103,-59.49105000
14.30511475,-59.79561000
14.35279846,-53.99608000
14.40048218,-60.21011000
14.44816589,-58.22502000
14.49584961,-58.65703000
14.54353333,-59.84715000
14.59121704,-59.38365000
14.63890076,-60.70347000
14.68658447,-66.79575000
14.73426819,-55.28638000
14.78195190,-52.70378000
14.82963562,-51.85207000
14.87731934,-54.82008000
14.92500305,-62.48172000
14.97268677,-55.02796000
15.02037048,-53.10973000
15.06805420,-50.94997000
15.11573792,-52.46719000
15.16342163,-52.00056000
15.21110535,-56.24060000
15.25878906,-55.15643000
15.30647278,-56.57334000
15.35415649,-58.25485000
15.40184021,-54.33012000
15.44952393,-56.56775000
15.49720764,-55.39015000
15.54489136,-63.06920000
15.59257507,-56.66603000
15.64025879,-56.86617000
15.68794250,-52.68738000
15.73562622,-54.01813000
15.78330994,-63.31394000
15.83099365,-60.84812000
15.87867737,-54.05058000
15.92636108,-50.34958000
15.97404480,-49.84276000
16.02172852,-52.50122000
16.06941223,-58.21582000
16.11709595,-64.49714000
16.16477966,-62.93683000
16.21246338,-53.84416000
16.26014709,-55.25282000
16.30783081,-62.60992000
16.35551453,-57.12303000
16.40319824,-56.19122000
16.45088196,-57.96392000
16.49856567,-56.76331000
16.54624939,-64.86971000
16.59393311,-60.45834000
16.64161682,-55.93935000
16.68930054,-59.17002000
16.73698425,-64.30424000
16.78466797,-67.02583000
16.83235168,-63.96815000
16.88003540,-60.30523000
16.92771912,-61.01277000
16.97540283,-53.48756000
17.02308655,-65.71078000
17.07077026,-56.00029000
17.11845398,-52.25686000
17.16613770,-49.96122000
17.21382141,-48.31950000
17.26150513,-52.92120000
17.30918884,-72.41612000
17.35687256,-76.81512000
17.40455627,-55.74636000
17.45223999,-51.41199000
17.49992371,-53.72651000
17.54760742,-59.43979000
17.59529114,-59.43680000
17.64297485,-56.86189000
17.69065857,-62.65236000
17.73834229,-57.58958000
17.78602600,-55.09216000
17.83370972,-56.71536000
17.88139343,-69.18067000
17.92907715,-54.90839000
17.97676086,-55.13210000
18.02444458,-55.81087000
18.07212830,-60.03042000
18.11981201,-59.96646000
18.16749573,-57.10993000
18.21517944,-56.92440000
18.26286316,-62.47388000
18.31054688,-67.94920000
18.35823059,-62.25590000
18.40591431,-60.57108000
18.45359802,-58.44300000
18.50128174,-63.00972000
18.54896545,-64.74412000
18.59664917,-59.24366000
18.64433289,-59.59055000
18.69201660,-73.07099000
18.73970032,-63.33812000
18.78738403,-64.31731000
18.83506775,-67.33804000
18.88275146,-62.38354000
18.93043518,-55.05644000
18.97811890,-56.21401000
19.02580261,-64.49907000
19.07348633,-61.84860000
19.12117004,-57.63975000
19.16885376,-61.68381000
19.21653748,-61.70585000
19.26422119,-56.30924000
19.31190491,-54.82008000
19.35958862,-52.57695000
19.40727234,-51.91723000
19.45495605,-53.93764000
19.50263977,-61.06123000
19.55032349,-62.18044000
19.59800720,-55.68778000
19.64569092,-54.52554000
19.69337463,-58.22147000
19.74105835,-58.39340000
19.78874207,-51.48021000
19.83642578,-51.44494000
19.88410950,-59.93384000
19.93179321,-53.39695000
19.97947693,-68.45562000
20.02716064,-49.98426000
20.07484436,-48.99238000
20.12252808,-50.08125000
20.17021179,-53.02282000
20.21789551,-56.69578000
20.26557922,-55.61346000
20.31326294,-49.23453000
20.36094666,-47.86585000
20.40863037,-50.11989000
20.45631409,-52.72964000
20.50399780,-54.93945000
20.55168152,-62.83108000
20.59936523,-62.92372000
20.64704895,-60.98831000
20.69473267,-65.87180000
20.74241638,-60.63828000
20.79010010,-56.14735000
20.83778381,-54.12316000
20.88546753,-54.26600000
20.93315125,-49.16226000
20.98083496,-45.44376000
21.02851868,-45.51098000
21.07620239,-47.43519000
21.12388611,-48.60525000
21.17156982,-51.51666000
21.21925354,-58.30580000
21.26693726,-62.45947000
21.31462097,-64.84333000
21.36230469,-55.79396000
21.40998840,-52.98444000
21.45767212,-52.58839000
21.50535583,-56.57923000
21.55303955,-69.10915000
21.60072327,-63.09934000
21.64840698,-54.65527000
21.69609070,-52.33953000
21.74377441,-55.92247000
21.79145813,-63.11349000
21.83914185,-62.76220000
21.88682556,-51.62642000
21.93450928,-50.10672000
21.98219299,-58.66808000
22.02987671,-55.24762000
22.07756042,-52.32756000
22.12524414,-59.00620000
22.17292786,-50.48349000
22.22061157,-47.90815000
22.26829529,-47.34097000
22.31597900,-47.48681000
22.36366272,-51.90567000
22.41134644,-59.01022000
22.45903015,-56.59974000
22.50671387,-57.51583000
22.55439758,-71.34799000
22.60208130,-57.15028000
22.64976501,-55.49583000
22.69744873,-59.65225000
22.74513245,-55.71228000
22.79281616,-51.79855000
22.84049988,-54.31911000
22.88818359,-53.23915000
22.93586731,-49.61765000
22.98355103,-49.20662000
23.03123474,-55.03088000
23.07891846,-59.95943000
23.12660217,-61.27051000
23.17428589,-63.33378000
23.22196960,-63.93581000
23.26965332,-54.75597000
23.31733704,-56.68169000
23.36502075,-64.68964000
23.41270447,-65.62099000
23.46038818,-64.43935000
23.50807190,-63.82692000
23.55575562,-55.38851000
23.60343933,-57.59186000
23.65112305,-63.82505000
23.69880676,-67.20102000
23.74649048,-56.88786000
23.79417419,-54.31083000
23.84185791,-56.67000000
23.88954163,-57.91296000
23.93722534,-54.08531000
23.98490906,-52.69872000
24.03259277,-52.20371000
24.08027649,-53.86806000
24.12796021,-60.94773000
24.17564392,-53.27334000
24.22332764,-55.55348000
24.27101135,-57.86208000
24.31869507,-63.45051000
24.36637878,-57.46744000
24.41406250,-52.40717000
24.46174622,-54.76565000
24.50942993,-62.70162000
24.55711365,-57.31227000
24.60479736,-53.27480000
24.65248108,-56.81168000
24.70016479,-56.14905000
24.74784851,-49.10663000
24.79553223,-50.78998000
24.84321594,-74.77638000
24.89089966,-53.76189000
24.93858337,-54.62323000
24.98626709,-54.69017000
25.03395081,-57.40581000
25.08163452,-68.33404000
25.12931824,-63.34133000
25.17700195,-76.31325000
25.22468567,-56.33126000
25.27236938,-54.46129000
25.32005310,-56.08476000
25.36773682,-71.25407000
25.41542053,-56.46933000
25.46310425,-55.44300000
25.51078796,-59.14281000
25.55847168,-63.25707000
25.60615540,-64.71495000
25.65383911,-60.06855000
25.70152283,-52.28474000
25.74920654,-54.47895000
25.79689026,-59.37881000
25.84457397,-60.24065000
25.89225769,-56.89724000
25.93994141,-55.77055000
25.98762512,-56.54379000
26.03530884,-61.47892000
26.08299255,-76.48724000
26.13067627,-62.27231000
26.17835999,-64.67459000
26.22604370,-54.95392000
26.27372742,-55.92442000
26.32141113,-58.05609000
26.36909485,-54.23663000
26.41677856,-54.19446000
26.46446228,-58.64159000
26.51214600,-63.93909000
26.55982971,-64.01326000
26.60751343,-58.69179000
26.65519714,-58.91140000
26.70288086,-51.87942000
26.75056458,-51.96384000
26.79824829,-56.27517000
26.84593201,-55.49065000
26.89361572,-58.30540000
26.94129944,-60.76742000
26.98898315,-54.99598000
27.03666687,-57.36467000
27.08435059,-55.44298000
27.13203430,-61.89277000
27.17971802,-61.36110000
27.22740173,-57.91222000
27.27508545,-53.24184000
27.32276917,-60.81738000
27.37045288,-54.50444000
27.41813660,-52.36087000
27.46582031,-53.50114000
27.51350403,-54.56014000
27.56118774,-55.36426000
27.60887146,-55.06427000
27.65655518,-57.36183000
27.70423889,-67.27805000
27.75192261,-55.09920000
27.79960632,-52.53807000
27.84729004,-50.54094000
27.89497375,-48.42244000
27.94265747,-49.44804000
27.99034119,-53.18251000
28.03802490,-55.79570000
28.08570862,-53.35998000
28.13339233,-53.80932000
28.18107605,-59.72977000
28.22875977,-56.32211000
28.27644348,-55.57494000
28.32412720,-64.73205000
28.37181091,-54.68833000
28.41949463,-53.99625000
28.46717834,-62.16240000
28.51486206,-60.82452000
28.56254578,-60.62702000
28.61022949,-80.60718000
28.65791321,-54.26091000
28.70559692,-51.21675000
28.75328064,-53.14238000
28.80096436,-54.71381000
28.84864807,-55.90214000
28.89633179,-53.85664000
28.94401550,-56.22109000
28.99169922,-57.40764000
29.03938293,-57.75757000
29.08706665,-71.37135000
29.13475037,-64.25417000
29.18243408,-56.57729000
29.23011780,-56.94170000
29.27780151,-65.15574000
29.32548523,-59.51561000
29.37316895,-51.21485000
29.42085266,-56.36398000
29.46853638,-67.74550000
29.51622009,-60.90833000
29.56390381,-56.61324000
29.61158752,-53.71205000
29.65927124,-51.79918000
29.70695496,-55.72348000
29.75463867,-52.02214000
29.80232239,-48.60252000
29.85000610,-54.22865000
29.89768982,-71.13353000
29.94537354,-59.54213000
29.99305725,-60.65886000
30.04074097,-66.29702000
30.08842468,-65.71832000
30.13610840,-55.90984000
30.18379211,-52.58665000
30.23147583,-54.89683000
30.27915955,-54.98912000
30.32684326,-53.34356000
30.37452698,-60.49467000
30.42221069,-60.77645000
30.46989441,-54.71545000
30.51757813,-54.52905000
30.56526184,-58.04467000
30.61294556,-68.00554000
30.66062927,-54.71386000
30.70831299,-57.37259000
30.75599670,-56.70553000
30.80368042,-60.92455000
30.85136414,-58.68643000
30.89904785,-53.07401000
30.94673157,-54.21101000
30.99441528,-58.62994000
31.04209900,-65.30534000
31.08978271,-71.89886000
31.13746643,-60.98148000
31.18515015,-55.82637000
31.23283386,-58.22080000
31.28051758,-63.82236000
31.32820129,-62.75273000
31.37588501,-56.89411000
31.42356873,-51.42009000
31.47125244,-54.18325000
31.51893616,-57.82435000
31.56661987,-62.39849000
31.61430359,-61.85252000
31.66198730,-58.44536000
31.70967102,-53.80603000
31.75735474,-52.39041000
31.80503845,-55.58001000
31.85272217,-58.78696000
31.90040588,-59.37895000
31.94808960,-58.79215000
31.99577332,-58.06408000
32.04345703,-60.07233000
32.09114075,-56.16551000
32.13882446,-62.16988000
32.18650818,-56.14215000
32.23419189,-50.96642000
32.28187561,-50.29270000
32.32955933,-53.61869000
32.37724304,-51.04986000
32.42492676,-53.49289000
32.47261047,-58.70451000
32.52029419,-56.14888000
32.56797791,-55.01179000
32.61566162,-65.57428000
32.66334534,-60.37491000
32.71102905,-55.48058000
32.75871277,-57.42778000
32.80639648,-58.67315000
32.85408020,-53.23109000
32.90176392,-51.09135000
32.94944763,-53.66230000
32.99713135,-54.92011000
33.04481506,-52.27423000
33.09249878,-51.95420000
33.14018250,-51.70931000
33.18786621,-53.44706000
33.23554993,-55.00522000
33.28323364,-55.34666000
33.33091736,-60.08255000
33.37860107,-59.72812000
33.42628479,-52.33482000
33.47396851,-54.09155000
33.52165222,-53.49173000
33.56933594,-50.87374000
33.61701965,-62.37938000
33.66470337,-58.74069000
33.71238708,-57.84074000
33.76007080,-55.76428000
33.80775452,-54.35735000
33.85543823,-56.71162000
33.90312195,-63.61437000
33.95080566,-62.81209000
33.99848938,-56.13728000
34.04617310,-50.57397000
34.09385681,-55.44074000
34.14154053,-61.30489000
34.18922424,-56.55022000
34.23690796,-54.93574000
34.28459167,-53.58950000
34.33227539,-53.49932000
34.37995911,-58.43357000
34.42764282,-59.63946000
34.47532654,-53.30338000
34.52301025,-55.61147000
34.57069397,-73.56905000
34.61837769,-56.49070000
34.66606140,-61.04670000
34.71374512,-65.70619000
34.76142883,-69.18474000
34.80911255,-65.34140000
34.85679626,-63.22558000
34.90447998,-61.59994000
34.95216370,-58.95745000
34.99984741,-57.77045000
35.04753113,-58.38832000
35.09521484,-70.07855000
35.14289856,-87.43671000
35.19058228,-56.27171000
35.23826599,-51.32524000
35.28594971,-51.61643000
35.33363342,-52.27594000
35.38131714,-54.02972000
35.42900085,-54.12230000
35.47668457,-51.29480000
35.52436829,-51.74981000
35.57205200,-53.42488000
35.61973572,-51.41254000
35.66741943,-51.79395000
35.71510315,-56.66685000
35.76278687,-71.53735000
35.81047058,-60.17261000
35.85815430,-58.37424000
35.90583801,-53.62159000
35.95352173,-54.38103000
36.00120544,-54.87996000
36.04888916,-52.44164000
36.09657288,-50.61654000
36.14425659,-50.90597000
36.19194031,-53.92022000
36.23962402,-56.08219000
36.28730774,-64.29503000
36.33499146,-57.36227000
36.38267517,-54.56801000
36.43035889,-59.33129000
36.47804260,-62.18831000
36.52572632,-57.17479000
36.57341003,-54.37054000
36.62109375,-62.92105000
36.66877747,-62.67524000
36.71646118,-60.21725000
36.76414490,-64.51760000
36.81182861,-56.08492000
36.85951233,-56.17664000
36.90719604,-52.09985000
36.95487976,-50.55332000
37.00256348,-53.30663000
37.05024719,-61.17717000
37.09793091,-59.38794000
37.14561462,-53.63803000
37.19329834,-56.36372000
37.24098206,-75.80263000
37.28866577,-56.42593000
37.33634949,-53.82564000
37.38403320,-54.96765000
37.43171692,-60.36234000
37.47940063,-63.40772000
37.52708435,-58.09898000
37.57476807,-55.67968000
37.62245178,-59.96089000
37.67013550,-77.09241000
37.71781921,-56.65459000
37.76550293,-57.61293000
37.81318665,-64.04026000
37.86087036,-67.57448000
37.90855408,-60.99762000
37.95623779,-54.74614000
38.00392151,-52.92768000
38.05160522,-53.97019000
38.09928894,-66.26146000
38.14697266,-62.89560000
38.19465637,-58.11102000
38.24234009,-57.64752000
38.29002380,-55.60755000
38.33770752,-51.24224000
38.38539124,-51.60933000
38.43307495,-58.88743000
38.48075867,-65.51292000
38.52844238,-58.71813000
38.57612610,-57.42291000
38.62380981,-56.20568000
38.67149353,-63.25704000
38.71917725,-62.20423000
38.76686096,-58.60563000
38.81454468,-61.36917000
38.86222839,-68.18443000
38.90991211,-78.86026000
38.95759583,-78.32245000
39.00527954,-64.15340000
39.05296326,-59.25627000
39.10064697,-49.56896000
39.14833069,-50.55265000
39.19601440,-70.36409000
39.24369812,-52.64389000
39.29138184,-50.67999000
39.33906555,-52.72573000
39.38674927,-54.22170000
39.43443298,-53.51247000
39.48211670,-56.29558000
39.52980042,-53.58031000
39.57748413,-49.76669000
39.62516785,-50.74377000
39.67285156,-63.60875000
39.72053528,-56.11019000
39.76821899,-53.96223000
39.81590271,-54.33834000
39.86358643,-57.14486000
39.91127014,-52.74773000
39.95895386,-55.61320000
40.00663757,-62.69830000
40.05432129,-64.39561000
40.10200500,-55.75539000
40.14968872,-54.62428000
40.19737244,-58.79322000
40.24505615,-65.32547000
40.29273987,-69.46301000
40.34042358,-56.15246000
40.38810730,-51.00174000
40.43579102,-51.44088000
40.48347473,-55.78308000
40.53115845,-63.69936000
40.57884216,-57.58320000
40.62652588,-57.65918000
40.67420959,-54.99309000
40.72189331,-57.56758000
40.76957703,-60.41927000
40.81726074,-59.53563000
40.86494446,-56.16905000
40.91262817,-61.48175000
40.96031189,-53.10321000
41.00799561,-51.09636000
41.05567932,-53.10668000
41.10336304,-56.34365000
41.15104675,-54.44706000
41.19873047,-51.56946000
41.24641418,-52.08034000
41.29409790,-55.22184000
41.34178162,-63.21474000
41.38946533,-54.32637000
41.43714905,-56.63306000
41.48483276,-66.49431000
41.53251648,-55.94491000
41.58020020,-54.93454000
41.62788391,-52.31571000
41.67556763,-53.66209000
41.72325134,-56.99907000
41.77093506,-57.76627000
41.81861877,-53.98537000
41.86630249,-51.27065000
41.91398621,-54.30142000
41.96166992,-61.41053000
42.00935364,-57.70567000
42.05703735,-53.99833000
42.10472107,-58.16771000
42.15240479,-65.16776000
42.20008850,-55.36943000
42.24777222,-56.94832000
42.29545593,-53.35314000
42.34313965,-51.14674000
42.39082336,-53.54650000
42.43850708,-70.45242000
42.48619080,-52.87007000
42.53387451,-49.26183000
42.58155823,-51.45728000
42.62924194,-55.42671000
42.67692566,-62.63218000
42.72460938,-73.79061000
42.77229309,-62.67343000
42.81997681,-59.70565000
42.86766052,-57.80731000
42.91534424,-58.44376000
42.96302795,-55.21391000
43.01071167,-55.73845000
43.05839539,-59.83902000
43.10607910,-59.31078000
43.15376282,-52.78564000
43.20144653,-51.39967000
43.24913025,-55.93981000
43.29681396,-69.46734000
43.34449768,-60.96954000
43.39218140,-57.16225000
43.43986511,-58.79239000
43.48754883,-59.02711000
43.53523254,-63.86154000
43.58291626,-55.47447000
43.63059998,-48.47349000
43.67828369,-49.57201000
43.72596741,-54.90345000
43.77365112,-66.62385000
43.82133484,-57.99331000
43.86901855,-52.18319000
43.91670227,-52.32214000
43.96438599,-52.93264000
44.01206970,-50.84477000
44.05975342,-52.58536000
44.10743713,-63.77870000
44.15512085,-63.09964000
44.20280457,-60.11907000
44.25048828,-71.55191000
44.29817200,-60.34095000
44.34585571,-63.93863000
44.39353943,-63.22540000
44.44122314,-59.43056000
44.48890686,-59.14246000
44.53659058,-54.12863000
44.58427429,-56.77499000
44.63195801,-49.43855000
44.67964172,-50.04964000
44.72732544,-54.26423000
44.77500916,-54.99514000
44.82269287,-59.19011000
44.87037659,-73.55516000
44.91806030,-67.17442000
44.96574402,-63.36792000
45.01342773,-56.70053000
45.06111145,-60.33608000
45.10879517,-61.31453000
45.15647888,-52.78093000
45.20416260,-49.66167000
45.25184631,-52.97449000
45.29953003,-59.25368000
45.34721375,-59.73438000
45.39489746,-53.90531000
45.44258118,-48.28171000
45.49026489,-49.71619000
45.53794861,-61.04755000
45.58563232,-55.43342000
45.63331604,-56.54404000
45.68099976,-59.06914000
45.72868347,-54.62170000
45.77636719,-51.74984000
45.82405090,-49.18621000
45.87173462,-52.85497000
45.91941833,-53.69030000
45.96710205,-49.03840000
46.01478577,-47.97048000
46.06246948,-49.91151000
46.11015320,-53.10944000
46.15783691,-54.58722000
46.20552063,-57.60089000
46.25320435,-56.18486000
46.30088806,-59.21725000
46.34857178,-59.12232000
46.39625549,-58.94970000
46.44393921,-62.29600000
46.49162292,-54.96793000
46.53930664,-52.32108000
46.58699036,-51.81696000
46.63467407,-56.76178000
46.68235779,-58.52410000
46.73004150,-54.28415000
46.77772522,-52.49398000
46.82540894,-53.71455000
46.87309265,-56.03014000
46.92077637,-59.30348000
46.96846008,-61.80820000
47.01614380,-62.07975000
47.06382751,-61.48103000
47.11151123,-57.78343000
47.15919495,-56.74542000
47.20687866,-54.78557000
47.25456238,-56.55224000
47.30224609,-61.33707000
47.34992981,-60.58940000
47.39761353,-54.73928000
47.44529724,-55.00671000
47.49298096,-66.44995000
47.54066467,-66.34505000
47.58834839,-60.07513000
47.63603210,-59.90545000
47.68371582,-60.01995000
47.73139954,-59.72386000
47.77908325,-58.60551000
47.82676697,-60.33640000
47.87445068,-67.70583000
47.92213440,-60.46520000
47.96981812,-57.40734000
48.01750183,-56.97355000
48.06518555,-56.53729000
48.11286926,-57.03068000
48.16055298,-56.52945000
48.20823669,-51.26203000
48.25592041,-61.39066000
48.30360413,-51.70486000
48.35128784,-49.73551000
48.39897156,-51.61290000
48.44665527,-52.17775000
48.49433899,-49.04947000
48.54202271,-51.67072000
48.58970642,-57.05515000
48.63739014,-53.86097000
48.68507385,-53.04592000
48.73275757,-55.10752000
48.78044128,-62.88058000
48.82812500,-57.01741000
48.87580872,-57.73429000
48.92349243,-60.36137000
48.97117615,-60.33839000
49.01885986,-55.46096000
49.06654358,-51.33273000
49.11422729,-51.60952000
49.16191101,-53.59661000
49.20959473,-60.12866000
49.25727844,-56.10677000
49.30496216,-52.18349000
49.35264587,-57.51190000
49.40032959,-59.86727000
49.44801331,-54.61961000
49.49569702,-52.85452000
49.54338074,-49.51739000
49.59106445,-54.49551000
49.63874817,-57.69693000
49.68643188,-52.77138000
49.73411560,-56.05791000
49.78179932,-58.34649000
49.82948303,-58.44653000
49.87716675,-58.57341000
49.92485046,-63.42603000
49.97253418,-62.27065000
50.02021790,-59.73606000
50.06790161,-72.52460000
50.11558533,-54.98659000
50.16326904,-50.56686000
50.21095276,-53.16755000
50.25863647,-55.76177000
50.30632019,-54.60485000
50.35400391,-57.74802000
50.40168762,-65.00932000
50.44937134,-69.09872000
50.49705505,-62.01212000
50.54473877,-57.61662000
50.59242249,-55.94517000
50.64010620,-62.16132000
50.68778992,-55.68001000
50.73547363,-56.82803000
50.78315735,-55.91772000
50.83084106,-49.70995000
50.87852478,-50.69578000
50.92620850,-57.18609000
50.97389221,-57.43313000
51.02157593,-52.35205000
51.06925964,-57.70184000
51.11694336,-57.37674000
51.16462708,-55.23581000
51.21231079,-61.37827000
51.25999451,-57.58291000
51.30767822,-54.21711000
51.35536194,-58.73512000
51.40304565,-58.79947000
51.45072937,-60.49729000
51.49841309,-59.08985000
51.54609680,-73.64968000
51.59378052,-61.63685000
51.64146423,-68.84878000
51.68914795,-58.09292000
51.73683167,-59.38869000
51.78451538,-58.67358000
51.83219910,-59.91415000
51.87988281,-67.92270000
51.92756653,-61.86490000
51.97525024,-55.23277000
52.02293396,-63.56407000
52.07061768,-55.52618000
52.11830139,-55.52806000
52.16598511,-81.56413000
52.21366882,-56.81984000
52.26135254,-57.05948000
52.30903625,-63.67778000
52.35671997,-60.81120000
52.40440369,-53.83675000
52.45208740,-55.90600000
52.49977112,-60.03481000
52.54745483,-59.09534000
52.59513855,-51.57217000
52.64282227,-50.88790000
52.69050598,-61.47244000
52.73818970,-63.51385000
52.78587341,-63.90956000
52.83355713,-61.17199000
52.88124084,-56.05370000
52.92892456,-59.44619000
52.97660828,-64.92567000
53.02429199,-55.40604000
53.07197571,-51.82506000
53.11965942,-55.20483000
53.16734314,-57.37004000
53.21502686,-58.90824000
53.26271057,-59.84184000
53.31039429,-57.48463000
53.35807800,-74.95767000
53.40576172,-54.47643000
53.45344543,-52.47785000
53.50112915,-59.07976000
53.54881287,-64.84817000
53.59649658,-58.07456000
53.64418030,-54.52965000
53.69186401,-55.04356000
53.73954773,-54.23530000
53.78723145,-54.08508000
53.83491516,-57.27278000
53.88259888,-59.45196000
53.93028259,-54.92337000
53.97796631,-52.64952000
54.02565002,-53.73947000
54.07333374,-56.95515000
54.12101746,-79.08799000
54.16870117,-60.25803000
54.21638489,-61.50980000
54.26406860,-54.57512000
54.31175232,-53.48485000
54.35943604,-53.91215000
54.40711975,-54.57488000
54.45480347,-58.84362000
54.50248718,-58.71722000
54.55017090,-54.10912000
54.59785461,-53.26395000
54.64553833,-50.90344000
54.69322205,-52.88164000
54.74090576,-59.65137000
54.78858948,-58.25625000
54.83627319,-56.86214000
54.88395691,-54.96852000
54.93164063,-57.55654000
54.97932434,-75.21622000
55.02700806,-54.80681000
55.07469177,-52.65533000
55.12237549,-53.04312000
55.17005920,-54.61812000
55.21774292,-51.06913000
55.26542664,-50.11147000
55.31311035,-57.06646000
55.36079407,-67.41111000
55.40847778,-65.34880000
55.45616150,-56.03081000
55.50384521,-55.32921000
55.55152893,-61.80008000
55.59921265,-60.13039000
55.64689636,-51.70654000
55.69458008,-50.06378000
55.74226379,-52.00023000
55.78994751,-59.56514000
55.83763123,-67.92146000
55.88531494,-69.14864000
55.93299866,-73.77974000
55.98068237,-73.24360000
56.02836609,-64.11378000
56.07604980,-69.86646000
56.12373352,-70.55727000
56.17141724,-61.60793000
56.21910095,-62.28238000
56.26678467,-60.58323000
56.31446838,-61.44561000
56.36215210,-60.73230000
56.40983582,-62.20935000
56.45751953,-60.16087000
56.50520325,-53.79777000
56.55288696,-56.82052000
56.60057068,-60.15458000
56.64825439,-56.21326000
56.69593811,-56.59927000
56.74362183,-56.85836000
56.79130554,-53.74400000
56.83898926,-51.10406000
56.88667297,-54.28024000
56.93435669,-71.60509000
56.98204041,-55.38015000
57.02972412,-51.22326000
57.07740784,-53.92382000
57.12509155,-68.02022000
57.17277527,-55.77404000
57.22045898,-52.26768000
57.26814270,-51.70683000
57.31582642,-54.32522000
57.36351013,-59.28155000
57.41119385,-59.29884000
57.45887756,-52.75170000
57.50656128,-55.48483000
57.55424500,-61.45019000
57.60192871,-55.23202000
57.64961243,-61.00659000
57.69729614,-52.79224000
57.74497986,-50.76069000
57.79266357,-59.12735000
57.84034729,-54.75673000
57.88803101,-54.78024000
57.93571472,-61.65974000
57.98339844,-62.29916000
58.03108215,-60.49943000
58.07876587,-74.13985000
58.12644958,-55.34321000
58.17413330,-53.37715000
58.22181702,-55.88835000
58.26950073,-54.91801000
58.31718445,-51.97746000
58.36486816,-51.55422000
58.41255188,-58.23357000
58.46023560,-57.96310000
58.50791931,-54.32579000
58.55560303,-60.05803000
58.60328674,-55.50898000
58.65097046,-63.73140000
58.69865417,-58.61456000
58.74633789,-58.53556000
58.79402161,-69.56641000
58.84170532,-67.39755000
58.88938904,-65.62917000
58.93707275,-66.13249000
58.98475647,-61.87075000
59.03244019,-61.14830000
59.08012390,-62.32523000
59.12780762,-54.70876000
59.17549133,-59.66955000
59.22317505,-60.22339000
59.27085876,-58.73603000
59.31854248,-60.71791000
59.36622620,-56.91879000
59.41390991,-54.27952000
59.46159363,-53.49709000
59.50927734,-54.11274000
59.55696106,-59.60719000
59.60464478,-55.74433000
59.65232849,-54.74848000
59.70001221,-52.45760000
59.74769592,-57.54445000
59.79537964,-67.37598000
59.84306335,-59.99443000
59.89074707,-58.08481000
59.93843079,-54.25133000
59.98611450,-54.57843000
60.03379822,-67.50479000
60.08148193,-54.64680000
60.12916565,-52.96949000
60.17684937,-54.06471000
60.22453308,-53.57853000
60.27221680,-55.30805000
60.31990051,-61.50582000
60.36758423,-51.50024000
60.41526794,-54.27547000
60.46295166,-51.82470000
60.51063538,-49.79538000
60.55831909,-56.43011000
60.60600281,-65.46178000
60.65368652,-62.45076000
60.70137024,-70.71992000
60.74905396,-56.58828000
60.79673767,-53.26976000
60.84442139,-54.25722000
60.89210510,-54.00061000
60.93978882,-55.25401000
60.98747253,-64.09053000
61.03515625,-63.34610000
61.08283997,-51.19593000
61.13052368,-50.84116000
61.17820740,-56.78793000
61.22589111,-61.79440000
61.27357483,-62.59695000
61.32125854,-57.90557000
61.36894226,-62.91302000
61.41662598,-59.44141000
61.46430969,-51.30512000
61.51199341,-51.89034000
61.55967712,-55.22962000
61.60736084,-54.86723000
61.65504456,-56.59435000
61.70272827,-57.04544000
61.75041199,-56.18471000
61.79809570,-59.19882000
61.84577942,-62.80006000
61.89346313,-60.61428000
61.94114685,-58.63114000
61.98883057,-59.00417000
62.03651428,-57.88150000
62.08419800,-59.27847000
62.13188171,-63.66990000
62.17956543,-62.89387000
62.22724915,-65.07150000
62.27493286,-67.11227000
62.32261658,-55.29752000
62.37030029,-52.87223000
62.41798401,-56.00532000
62.46566772,-56.88912000
62.51335144,-52.06245000
62.56103516,-53.73529000
62.60871887,-60.08541000
62.65640259,-63.25998000
62.70408630,-50.46095000
62.75177002,-49.11269000
62.79945374,-53.90438000
62.84713745,-61.48099000
62.89482117,-59.22817000
62.94250488,-58.70641000
62.99018860,-62.09568000
63.03787231,-53.33907000
63.08555603,-57.12356000
63.13323975,-63.46252000
63.18092346,-62.92526000
63.22860718,-61.44015000
63.27629089,-60.36116000
63.32397461,-58.71073000
63.37165833,-54.71803000
63.41934204,-51.41794000
63.46702576,-51.04956000
63.51470947,-52.96740000
63.56239319,-60.23581000
63.61007690,-62.54517000
63.65776062,-62.33162000
63.70544434,-59.50386000
63.75312805,-62.89902000
63.80081177,-63.59251000
63.84849548,-55.56233000
63.89617920,-51.89820000
63.94386292,-53.18766000
63.99154663,-59.89831000
64.03923035,-71.06491000
64.08691406,-56.85223000
64.13459778,-55.84006000
64.18228149,-57.96503000
64.22996521,-52.86907000
64.27764893,-64.48882000
64.32533264,-52.24010000
64.37301636,-56.28434000
64.42070007,-63.38607000
64.46838379,-56.73851000
64.51606750,-51.42616000
64.56375122,-52.36549000
64.61143494,-59.22199000
64.65911865,-65.05291000
64.70680237,-57.19066000
64.75448608,-52.50929000
64.80216980,-52.14275000
64.84985352,-58.31541000
64.89753723,-54.91018000
64.94522095,-54.19857000
64.99290466,-60.05858000
65.04058838,-58.69836000
65.08827209,-53.67590000
65.13595581,-53.43418000
65.18363953,-55.33451000
65.23132324,-50.77392000
65.27900696,-52.31406000
65.32669067,-67.45719000
65.37437439,-56.31110000
65.42205811,-58.22445000
65.46974182,-72.17735000
65.51742554,-53.99342000
65.56510925,-49.78341000
65.61279297,-49.07133000
65.66047668,-49.29815000
65.70816040,-50.62357000
65.75584412,-50.88709000
65.80352783,-55.74649000
65.85121155,-53.65906000
65.89889526,-54.08537000
65.94657898,-54.37203000
65.99426270,-57.02668000
66.04194641,-54.73541000
66.08963013,-57.16924000
66.13731384,-53.35323000
66.18499756,-56.01034000
66.23268127,-55.73654000
66.28036499,-52.68137000
66.32804871,-56.12503000
66.37573242,-53.68870000
66.42341614,-53.95847000
66.47109985,-57.19895000
66.51878357,-57.11073000
66.56646729,-60.68633000
66.61415100,-60.36523000
66.66183472,-58.49501000
66.70951843,-58.33769000
66.75720215,-54.85422000
66.80488586,-56.76639000
66.85256958,-60.30571000
66.90025330,-61.29806000
66.94793701,-58.44328000
66.99562073,-51.96623000
67.04330444,-48.33366000
67.09098816,-50.45223000
67.13867188,-55.72275000
67.18635559,-53.95220000
67.23403931,-63.32751000
67.28172302,-53.23738000
67.32940674,-57.72831000
67.37709045,-58.29057000
67.42477417,-61.18184000
67.47245789,-60.78442000
67.52014160,-55.24261000
67.56782532,-51.72931000
67.61550903,-52.95448000
67.66319275,-54.70181000
67.71087646,-55.24200000
67.75856018,-61.24220000
67.80624390,-57.49345000
67.85392761,-51.05921000
67.90161133,-50.83561000
67.94929504,-51.71133000
67.99697876,-54.69172000
68.04466248,-61.38750000
68.09234619,-57.86556000
68.14002991,-56.15389000
68.18771362,-69.99857000
68.23539734,-67.68256000
68.28308105,-58.38341000
68.33076477,-66.05431000
68.37844849,-58.45503000
68.42613220,-64.58463000
68.47381592,-51.30676000
68.52149963,-48.87830000
68.56918335,-50.56862000
68.61686707,-53.53580000
68.66455078,-54.84685000
68.71223450,-50.90712000
68.75991821,-53.24285000
68.80760193,-55.26283000
68.85528564,-52.63966000
68.90296936,-52.81395000
68.95065308,-55.13614000
68.99833679,-60.40081000
69.04602051,-59.68573000
69.09370422,-52.36407000
69.14138794,-51.12424000
69.18907166,-54.48479000
69.23675537,-55.93217000
69.28443909,-64.08218000
69.33212280,-67.51385000
69.37980652,-79.04044000
69.42749023,-63.16790000
69.47517395,-58.93296000
69.52285767,-54.80615000
69.57054138,-50.34870000
69.61822510,-50.14367000
69.66590881,-54.38338000
69.71359253,-63.57837000
69.76127625,-57.63567000
69.80895996,-52.93852000
69.85664368,-53.92601000
69.90432739,-59.98297000
69.95201111,-58.01402000
69.99969482,-57.26074000
70.04737854,-58.44332000
70.09506226,-53.14241000
70.14274597,-50.57700000
70.19042969,-55.84854000
70.23811340,-59.61375000
70.28579712,-63.27433000
70.33348083,-62.52934000
70.38116455,-58.08186000
70.42884827,-59.24873000
70.47653198,-59.42645000
70.52421570,-53.48752000
70.57189941,-54.63631000
70.61958313,-58.56520000
70.66726685,-56.01554000
70.71495056,-59.48378000
70.76263428,-60.85917000
70.81031799,-60.67218000
70.85800171,-51.06507000
70.90568542,-49.19313000
70.95336914,-52.94348000
71.00105286,-56.32254000
71.04873657,-59.80574000
71.09642029,-52.97272000
71.14410400,-58.49322000
71.19178772,-66.18086000
71.23947144,-63.53511000
71.28715515,-59.31073000
71.33483887,-48.63447000
71.38252258,-48.58950000
71.43020630,-56.83455000
71.47789001,-62.64762000
71.52557373,-71.18613000
71.57325745,-58.06835000
71.62094116,-56.58038000
71.66862488,-53.76615000
71.71630859,-53.37080000
71.76399231,-55.71359000
71.81167603,-60.73784000
71.85935974,-61.60509000
71.90704346,-58.92820000
71.95472717,-59.91405000
72.00241089,-63.45987000
72.05009460,-62.17164000
72.09777832,-67.42541000
72.14546204,-63.64265000
72.19314575,-59.10050000
72.24082947,-51.78751000
72.28851318,-50.48007000
72.33619690,-51.99496000
72.38388062,-54.74118000
72.43156433,-57.81174000
72.47924805,-59.48615000
72.52693176,-52.13988000
72.57461548,-48.00320000
72.62229919,-50.05663000
72.66998291,-55.06322000
72.71766663,-59.54693000
72.76535034,-55.59103000
72.81303406,-52.13667000
72.86071777,-52.13660000
72.90840149,-53.47977000
72.95608521,-57.87470000
73.00376892,-60.06258000
73.05145264,-54.10483000
73.09913635,-51.32416000
73.14682007,-51.49207000
73.19450378,-57.59140000
73.24218750,-58.90836000
73.28987122,-51.85183000
73.33755493,-51.26753000
73.38523865,-51.48762000
73.43292236,-54.50761000
73.48060608,-55.74942000
73.52828979,-56.06358000
73.57597351,-54.67821000
73.62365723,-64.46655000
73.67134094,-55.03560000
73.71902466,-52.93009000
73.76670837,-55.27111000
73.81439209,-55.82393000
73.86207581,-54.14363000
73.90975952,-57.09455000
73.95744324,-57.08015000
74.00512695,-51.62688000
74.05281067,-54.35301000
74.10049438,-60.09636000
74.14817810,-58.13600000
74.19586182,-61.11746000
74.24354553,-60.37846000
74.29122925,-60.15047000
74.33891296,-64.65688000
74.38659668,-58.08708000
74.43428040,-60.58234000
74.48196411,-60.10209000
74.52964783,-55.61303000
74.57733154,-58.86314000
74.62501526,-62.07774000
74.67269897,-52.79153000
74.72038269,-55.21153000
74.76806641,-64.57635000
74.81575012,-51.66902000
74.86343384,-51.83476000
74.91111755,-59.43608000
74.95880127,-60.71114000
75.00648499,-58.30452000
75.05416870,-65.11340000
75.10185242,-55.34801000
75.14953613,-62.82852000
75.19721985,-66.68569000
75.24490356,-55.62554000
75.29258728,-58.52591000
75.34027100,-59.45835000
75.38795471,-56.69907000
75.43563843,-61.54698000
75.48332214,-65.89066000
75.53100586,-63.93615000
75.57868958,-59.08063000
75.62637329,-57.36809000
75.67405701,-56.91212000
75.72174072,-54.96567000
75.76942444,-66.14050000
75.81710815,-55.37503000
75.86479187,-54.40219000
75.91247559,-63.13755000
75.96015930,-58.45844000
76.00784302,-65.01274000
76.05552673,-54.64296000
76.10321045,-54.32999000
76.15089417,-54.07835000
76.19857788,-56.72435000
76.24626160,-59.34932000
76.29394531,-57.92133000
76.34162903,-56.55602000
76.38931274,-52.62775000
76.43699646,-51.53967000
76.48468018,-52.15129000
76.53236389,-50.20550000
76.58004761,-54.39934000
76.62773132,-60.39510000
76.67541504,-51.37264000
76.72309875,-52.02575000
76.77078247,-52.59304000
76.81846619,-49.45553000
76.86614990,-51.45531000
76.91383362,-56.88982000
76.96151733,-58.39913000
77.00920105,-60.41160000
77.05688477,-61.27733000
77.10456848,-59.90998000
77.15225220,-68.10213000
77.19993591,-63.50849000
77.24761963,-58.63453000
77.29530334,-55.05188000
77.34298706,-56.33304000
77.39067078,-66.64197000
77.43835449,-59.34967000
77.48603821,-56.31155000
77.53372192,-55.97382000
77.58140564,-52.45892000
77.62908936,-52.40486000
77.67677307,-56.74417000
77.72445679,-55.34141000
77.77214050,-56.21664000
77.81982422,-57.24495000
77.86750793,-53.87010000
77.91519165,-56.37824000
77.96287537,-68.25742000
78.01055908,-55.41422000
78.05824280,-54.93880000
78.10592651,-60.99543000
78.15361023,-53.21770000
78.20129395,-52.02059000
78.24897766,-56.38667000
78.29666138,-68.82096000
78.34434509,-60.34721000
78.39202881,-52.55211000
78.43971252,-48.89733000
78.48739624,-50.07820000
78.53507996,-54.16159000
78.58276367,-51.58904000
78.63044739,-52.65482000
78.67813110,-56.88799000
78.72581482,-54.57156000
78.77349854,-52.38747000
78.82118225,-50.83273000
78.86886597,-53.84653000
78.91654968,-68.64592000
78.96423340,-58.80146000
79.01191711,-54.66460000
79.05960083,-60.31931000
79.10728455,-64.80754000
79.15496826,-59.35889000
79.20265198,-65.79021000
79.25033569,-64.05794000
79.29801941,-59.29152000
79.34570313,-71.24129000
79.39338684,-55.66217000
79.44107056,-50.93675000
79.48875427,-52.32295000
79.53643799,-58.59694000
79.58412170,-60.90515000
79.63180542,-58.95020000
79.67948914,-68.21545000
79.72717285,-57.56979000
79.77485657,-59.30264000
79.82254028,-57.37130000
79.87022400,-51.74677000
79.91790771,-50.50175000
79.96559143,-52.71177000
80.01327515,-55.70693000
80.06095886,-60.40501000
80.10864258,-67.03445000
80.15632629,-60.23697000
80.20401001,-69.44762000
80.25169373,-60.26165000
80.29937744,-56.36870000
80.34706116,-55.61289000
80.39474487,-55.93126000
80.44242859,-60.78619000
80.49011230,-53.77144000
80.53779602,-50.57690000
80.58547974,-54.32004000
80.63316345,-54.16561000
80.68084717,-53.24147000
80.72853088,-60.96406000
80.77621460,-62.44087000
80.82389832,-54.98669000
80.87158203,-52.64080000
80.91926575,-54.68264000
80.96694946,-54.33271000
81.01463318,-55.55723000
81.06231689,-63.39803000
81.11000061,-56.01695000
81.15768433,-57.89681000
81.20536804,-54.39466000
81.25305176,-52.38638000
81.30073547,-59.30057000
81.34841919,-54.80175000
81.39610291,-56.68936000
81.44378662,-62.71110000
81.49147034,-62.05036000
81.53915405,-61.62411000
81.58683777,-58.55960000
81.63452148,-61.65391000
81.68220520,-62.60443000
81.72988892,-58.29067000
81.77757263,-53.53377000
81.82525635,-53.25478000
81.87294006,-52.76300000
81.92062378,-59.30449000
81.96830750,-59.12301000
82.01599121,-53.43280000
82.06367493,-55.51654000
82.11135864,-67.98785000
82.15904236,-62.86557000
82.20672607,-62.91834000
82.25440979,-56.14910000
82.30209351,-56.07739000
82.34977722,-62.98935000
82.39746094,-60.67957000
82.44514465,-76.52135000
82.49282837,-58.06753000
82.54051208,-59.04131000
82.58819580,-53.89621000
82.63587952,-51.03783000
82.68356323,-51.12587000
82.73124695,-52.96604000
82.77893066,-54.27285000
82.82661438,-51.74235000
82.87429810,-50.96790000
82.92198181,-56.01265000
82.96966553,-66.73738000
83.01734924,-61.28062000
83.06503296,-64.64713000
83.11271667,-61.40188000
83.16040039,-58.98663000
83.20808411,-76.34578000
83.25576782,-71.24349000
83.30345154,-59.23307000
83.35113525,-59.75666000
83.39881897,-56.30469000
83.44650269,-52.11831000
83.49418640,-53.41847000
83.54187012,-57.47968000
83.58955383,-58.75317000
83.63723755,-53.42072000
83.68492126,-51.88151000
83.73260498,-54.99671000
83.78028870,-69.32550000
83.82797241,-67.78277000
83.87565613,-62.60275000
83.92333984,-58.24139000
83.97102356,-61.07915000
84.01870728,-68.43578000
84.06639099,-57.67490000
84.11407471,-54.84373000
84.16175842,-57.35395000
84.20944214,-50.51296000
84.25712585,-48.35503000
84.30480957,-50.06130000
84.35249329,-61.48836000
84.40017700,-55.34501000
84.44786072,-52.31388000
84.49554443,-57.28496000
84.54322815,-59.52219000
84.59091187,-51.06529000
84.63859558,-53.52394000
84.68627930,-70.90036000
84.73396301,-61.52031000
84.78164673,-58.23584000
84.82933044,-61.59209000
84.87701416,-58.30392000
84.92469788,-61.78910000
84.97238159,-58.64250000
85.02006531,-51.92234000
85.06774902,-51.68649000
85.11543274,-59.93433000
85.16311646,-60.22639000
85.21080017,-70.55187000
85.25848389,-65.39733000
85.30616760,-62.41238000
85.35385132,-73.39406000
85.40153503,-56.90190000
85.44921875,-55.17994000
85.49690247,-54.06666000
85.54458618,-52.92734000
85.59226990,-58.32374000
85.63995361,-53.85117000
85.68763733,-54.87314000
85.73532104,-60.21244000
85.78300476,-58.29720000
85.83068848,-53.49426000
85.87837219,-56.77021000
85.92605591,-67.58135000
85.97373962,-56.85786000
86.02142334,-54.89918000
86.06910706,-55.03342000
86.11679077,-58.92725000
86.16447449,-61.62937000
86.21215820,-63.70000000
86.25984192,-63.29050000
86.30752563,-59.30682000
86.35520935,-58.48928000
86.40289307,-66.71089000
86.45057678,-55.56703000
86.49826050,-53.76428000
86.54594421,-66.16210000
86.59362793,-53.91018000
86.64131165,-55.57894000
86.68899536,-72.91999000
86.73667908,-63.35468000
86.78436279,-70.19225000
86.83204651,-60.51233000
86.87973022,-58.30257000
86.92741394,-53.14103000
86.97509766,-52.83222000
87.02278137,-54.91740000
87.07046509,-60.72906000
87.11814880,-59.31564000
87.16583252,-55.26216000
87.21351624,-57.73180000
87.26119995,-60.56792000
87.30888367,-53.93653000
87.35656738,-58.34837000
87.40425110,-58.15806000
87.45193481,-61.25610000
87.49961853,-55.59832000
87.54730225,-48.57216000
87.59498596,-46.45843000
87.64266968,-52.34689000
87.69035339,-52.58305000
87.73803711,-53.05547000
87.78572083,-60.29401000
87.83340454,-49.53308000
87.88108826,-46.51673000
87.92877197,-47.58255000
87.97645569,-53.79021000
88.02413940,-55.90164000
88.07182312,-55.27032000
88.11950684,-55.22419000
88.16719055,-55.08745000
88.21487427,-54.11005000
88.26255798,-53.30189000
88.31024170,-56.25646000
88.35792542,-56.85529000
88.40560913,-57.65118000
88.45329285,-61.38321000
88.50097656,-66.29353000
88.54866028,-59.43181000
88.59634399,-58.71700000
88.64402771,-58.19308000
88.69171143,-60.21532000
88.73939514,-62.79487000
88.78707886,-64.10683000
88.83476257,-65.60224000
88.88244629,-55.46455000
88.93013000,-55.90255000
88.97781372,-53.41893000
89.02549744,-51.12667000
89.07318115,-51.82989000
89.12086487,-55.62900000
89.16854858,-64.49105000
89.21623230,-72.33704000
89.26391602,-61.95638000
89.31159973,-59.58500000
89.35928345,-57.03955000
89.40696716,-63.03194000
89.45465088,-67.43253000
89.50233459,-52.46940000
89.55001831,-51.42544000
89.59770203,-59.17807000
89.64538574,-57.41284000
89.69306946,-56.00635000
89.74075317,-60.72552000
89.78843689,-61.36286000
89.83612061,-56.98566000
89.88380432,-55.51659000
89.93148804,-54.37843000
89.97917175,-55.84030000
90.02685547,-61.75233000
90.07453918,-64.70705000
90.12222290,-67.61407000
90.16990662,-59.48627000
90.21759033,-54.25544000
90.26527405,-55.31529000
90.31295776,-58.23120000
90.36064148,-52.84899000
90.40832520,-54.07816000
90.45600891,-63.03897000
90.50369263,-53.68496000
90.55137634,-48.50475000
90.59906006,-48.26645000
90.64674377,-53.76036000
90.69442749,-57.50233000
90.74211121,-53.08430000
90.78979492,-53.56521000
90.83747864,-61.33126000
90.88516235,-71.63892000
90.93284607,-58.79208000
90.98052979,-52.36713000
91.02821350,-51.72330000
91.07589722,-55.59465000
91.12358093,-58.71965000
91.17126465,-56.44088000
91.21894836,-52.45271000
91.26663208,-53.75716000
91.31431580,-56.57235000
91.36199951,-57.43679000
91.40968323,-63.20259000
91.45736694,-59.42464000
91.50505066,-73.57195000
91.55273438,-52.76010000
91.60041809,-51.02846000
91.64810181,-53.39875000
91.69578552,-55.60983000
91.74346924,-54.53679000
91.79115295,-52.11562000
91.83883667,-52.39529000
91.88652039,-51.76602000
91.93420410,-51.67643000
91.98188782,-53.34006000
92.02957153,-58.99579000
92.07725525,-58.29282000
92.12493896,-53.33847000
92.17262268,-52.46106000
92.22030640,-58.03658000
92.26799011,-61.73422000
92.31567383,-56.61643000
92.36335754,-50.89822000
92.41104126,-49.84097000
92.45872498,-54.94524000
92.50640869,-59.70810000
92.55409241,-61.00600000
92.60177612,-65.17951000
92.64945984,-59.63626000
92.69714355,-49.35311000
92.74482727,-49.75758000
92.79251099,-58.96170000
92.84019470,-58.31272000
92.88787842,-53.34175000
92.93556213,-64.25560000
92.98324585,-58.28272000
93.03092957,-57.70206000
93.07861328,-54.44164000
93.12629700,-55.25993000
93.17398071,-52.66674000
93.22166443,-51.49189000
93.26934814,-54.71871000
93.31703186,-62.07085000
93.36471558,-52.63653000
93.41239929,-51.51168000
93.46008301,-50.26299000
93.50776672,-52.46038000
93.55545044,-61.21149000
93.60313416,-51.79182000
93.65081787,-50.02350000
93.69850159,-52.47826000
93.74618530,-58.20056000
93.79386902,-68.23634000
93.84155273,-60.90611000
93.88923645,-55.03571000
93.93692017,-58.00190000
93.98460388,-58.56888000
94.03228760,-54.66917000
94.07997131,-59.11378000
94.12765503,-64.44911000
94.17533875,-56.01838000
94.22302246,-55.88211000
94.27070618,-56.56157000
94.31838989,-61.03184000
94.36607361,-61.16505000
94.41375732,-61.31813000
94.46144104,-62.70815000
94.50912476,-63.37759000
94.55680847,-58.36897000
94.60449219,-61.18900000
94.65217590,-62.37748000
94.69985962,-53.27089000
94.74754333,-50.91564000
94.79522705,-55.79736000
94.84291077,-59.49606000
94.89059448,-58.56619000
94.93827820,-53.44386000
94.98596191,-50.07562000
95.03364563,-50.74631000
95.08132935,-56.19776000
95.12901306,-66.60446000
95.17669678,-55.97358000
95.22438049,-56.36520000
95.27206421,-62.23005000
95.31974792,-56.26595000
95.36743164,-56.07151000
95.41511536,-64.92661000
95.46279907,-55.23935000
95.51048279,-52.94703000
95.55816650,-59.96071000
95.60585022,-66.35276000
95.65353394,-59.55854000
95.70121765,-59.68182000
95.74890137,-65.87135000
95.79658508,-54.71688000
95.84426880,-51.11380000
95.89195251,-53.59196000
95.93963623,-62.24997000
95.98731995,-60.29597000
96.03500366,-62.03043000
96.08268738,-61.87431000
96.13037109,-62.89366000
96.17805481,-61.03299000
96.22573853,-55.67308000
96.27342224,-53.13788000
96.32110596,-57.30291000
96.36878967,-71.44660000
96.41647339,-59.59021000
96.46415710,-56.20953000
96.51184082,-66.93199000
96.55952454,-66.46390000
96.60720825,-61.17254000
96.65489197,-55.21867000
96.70257568,-51.41686000
96.75025940,-51.93128000
96.79794312,-58.63938000
96.84562683,-56.81758000
96.89331055,-58.25821000
96.94099426,-63.23823000
96.98867798,-57.00378000
97.03636169,-54.05164000
97.08404541,-55.55577000
97.13172913,-68.45506000
97.17941284,-58.47842000
97.22709656,-58.62482000
97.27478027,-57.39426000
97.32246399,-61.76289000
97.37014771,-55.61340000
97.41783142,-53.52843000
97.46551514,-55.58740000
97.51319885,-62.35102000
97.56088257,-62.67735000
97.60856628,-71.29265000
97.65625000,-55.24660000
97.70393372,-54.11955000
97.75161743,-55.50176000
97.79930115,-56.68477000
97.84698486,-56.02302000
97.89466858,-51.10984000
97.94235229,-53.75299000
97.99003601,-56.03256000
98.03771973,-56.95816000
98.08540344,-59.51077000
98.13308716,-58.44910000
98.18077087,-51.62380000
98.22845459,-54.10587000
98.27613831,-55.87482000
98.32382202,-67.91907000
98.37150574,-59.43867000
98.41918945,-58.47242000
98.46687317,-58.67269000
98.51455688,-57.08689000
98.56224060,-50.83246000
98.60992432,-49.02179000
98.65760803,-55.14916000
98.70529175,-56.34419000
98.75297546,-52.36223000
98.80065918,-52.48376000
98.84834290,-52.58403000
98.89602661,-55.66048000
98.94371033,-59.23523000
98.99139404,-53.60645000
99.03907776,-55.95265000
99.08676147,-63.57131000
99.13444519,-64.59378000
99.18212891,-68.51246000
99.22981262,-57.72204000
99.27749634,-55.11069000
99.32518005,-51.67011000
99.37286377,-55.86446000
99.42054749,-57.99598000
99.46823120,-57.15046000
99.51591492,-62.82353000
99.56359863,-60.88279000
99.61128235,-70.67295000
99.65896606,-62.59964000
99.70664978,-54.33419000
99.75433350,-53.37720000
99.80201721,-51.64614000
99.84970093,-51.64600000
99.89738464,-60.14471000
99.94506836,-57.78703000
99.99275208,-53.85709000
100.04043579,-58.81862000
100.08811951,-70.95468000
100.13580322,-56.21291000
100.18348694,-51.03411000
100.23117065,-52.16118000
100.27885437,-56.76362000
100.32653809,-70.78519000
100.37422180,-58.88754000
100.42190552,-65.00769000
100.46958923,-86.85228000
100.51727295,-67.18315000
100.56495667,-63.32371000
100.61264038,-88.26875000
100.66032410,-66.93275000
100.70800781,-58.08415000
100.75569153,-55.39905000
100.80337524,-65.48011000
100.85105896,-58.48566000
100.89874268,-60.17589000
100.94642639,-62.67604000
100.99411011,-56.08955000
101.04179382,-61.83771000
101.08947754,-68.01193000
101.13716125,-60.25522000
101.18484497,-62.02950000
101.23252869,-64.81152000
101.28021240,-59.99664000
101.32789612,-55.89809000
101.37557983,-54.49461000
101.42326355,-56.25591000
101.47094727,-60.14488000
101.51863098,-62.35646000
101.56631470,-54.37811000
101.61399841,-60.81613000
101.66168213,-62.32689000
101.70936584,-69.10078000
101.75704956,-57.57703000
101.80473328,-55.29076000
101.85241699,-57.47451000
101.90010071,-57.14241000
101.94778442,-59.20654000
101.99546814,-65.03770000
102.04315186,-63.91510000
102.09083557,-64.62518000
102.13851929,-60.41388000
102.18620300,-62.10652000
102.23388672,-52.62381000
102.28157043,-50.70259000
102.32925415,-65.49841000
102.37693787,-56.32005000
102.42462158,-63.21371000
102.47230530,-63.02128000
102.51998901,-57.27538000
102.56767273,-58.43340000
102.61535645,-65.58547000
102.66304016,-57.92660000
102.71072388,-61.93710000
102.75840759,-62.67124000
102.80609131,-65.55894000
102.85377502,-56.67039000
102.90145874,-53.99669000
102.94914246,-57.43621000
102.99682617,-59.16677000
103.04450989,-60.24155000
103.09219360,-56.92568000
103.13987732,-60.26704000
103.18756104,-70.27183000
103.23524475,-64.13127000
103.28292847,-55.03786000
103.33061218,-65.19984000
103.37829590,-57.22452000
103.42597961,-57.74784000
103.47366333,-56.51403000
103.52134705,-53.59321000
103.56903076,-60.62363000
103.61671448,-57.27442000
103.66439819,-54.71470000
103.71208191,-58.56841000
103.75976563,-59.91329000
103.80744934,-55.44251000
103.85513306,-50.92935000
103.90281677,-56.35178000
103.95050049,-61.23503000
103.99818420,-56.34966000
104.04586792,-60.72952000
104.09355164,-54.94790000
104.14123535,-50.64683000
104.18891907,-50.19157000
104.23660278,-57.03843000
104.28428650,-58.48619000
104.33197021,-54.70054000
104.37965393,-52.72089000
104.42733765,-60.55282000
104.47502136,-57.76386000
104.52270508,-59.21827000
104.57038879,-55.24716000
104.61807251,-55.42642000
104.66575623,-63.20728000
104.71343994,-64.23265000
104.76112366,-55.87494000
104.80880737,-51.91479000
104.85649109,-54.63055000
104.90417480,-59.73239000
104.95185852,-55.62043000
104.99954224,-64.42379000
105.04722595,-51.39875000
105.09490967,-47.31414000
105.14259338,-50.89092000
105.19027710,-59.12885000
105.23796082,-53.45792000
105.28564453,-63.82576000
105.33332825,-61.46325000
105.38101196,-57.48235000
105.42869568,-56.55653000
105.47637939,-61.07834000
105.52406311,-73.99931000
105.57174683,-60.49335000
105.61943054,-53.42413000
105.66711426,-55.53661000
105.71479797,-56.05144000
105.76248169,-56.81609000
105.81016541,-64.76897000
105.85784912,-73.03570000
105.90553284,-63.42563000
105.95321655,-58.55939000
106.00090027,-57.54816000
106.04858398,-59.23129000
106.09626770,-59.83028000
106.14395142,-61.25873000
106.19163513,-55.23537000
106.23931885,-53.86530000
106.28700256,-60.39362000
106.33468628,-63.08675000
106.38237000,-61.81253000
106.43005371,-61.04042000
106.47773743,-65.51928000
106.52542114,-58.62341000
106.57310486,-58.99303000
106.62078857,-62.78337000
106.66847229,-56.83316000
106.71615601,-54.84716000
106.76383972,-53.94152000
106.81152344,-51.79725000
106.85920715,-53.83855000
106.90689087,-54.08855000
106.95457458,-50.81667000
107.00225830,-55.55067000
107.04994202,-53.55297000
107.09762573,-53.31939000
107.14530945,-63.75446000
107.19299316,-59.21630000
107.24067688,-53.66937000
107.28836060,-53.86206000
107.33604431,-59.06680000
107.38372803,-54.90313000
107.43141174,-51.64879000
107.47909546,-52.54533000
107.52677917,-69.74785000
107.57446289,-54.53294000
107.62214661,-52.54581000
107.66983032,-53.00320000
107.71751404,-52.97084000
107.76519775,-56.76878000
107.81288147,-66.26468000
107.86056519,-58.59966000
107.90824890,-54.03644000
107.95593262,-55.88863000
108.00361633,-63.71508000
108.05130005,-61.34442000
108.09898376,-60.74509000
108.14666748,-53.76587000
108.19435120,-55.85281000
108.24203491,-70.52179000
108.28971863,-58.70323000
108.33740234,-55.00719000
108.38508606,-53.67222000
108.43276978,-54.66699000
108.48045349,-53.50163000
108.52813721,-55.94620000
108.57582092,-64.51280000
108.62350464,-65.78962000
108.67118835,-55.03219000
108.71887207,-51.84931000
108.76655579,-56.30577000
108.81423950,-70.48608000
108.86192322,-60.93105000
108.90960693,-58.84731000
108.95729065,-58.20299000
109.00497437,-57.21907000
109.05265808,-58.42867000
109.10034180,-62.58660000
109.14802551,-63.15544000
109.19570923,-65.95005000
109.24339294,-66.68097000
109.29107666,-62.54682000
109.33876038,-63.28070000
109.38644409,-59.54221000
109.43412781,-53.79885000
109.48181152,-59.92064000
109.52949524,-61.12101000
109.57717896,-57.92176000
109.62486267,-61.78535000
109.67254639,-58.99730000
109.72023010,-60.36934000
109.76791382,-70.46652000
109.81559753,-62.77268000
109.86328125,-65.86398000
109.91096497,-59.35041000
109.95864868,-58.80356000
110.00633240,-55.83348000
110.05401611,-57.73814000
110.10169983,-54.24155000
110.14938354,-53.55902000
110.19706726,-57.20068000
110.24475098,-67.92772000
110.29243469,-62.25633000
110.34011841,-58.58813000
110.38780212,-55.82355000
110.43548584,-52.86543000
110.48316956,-50.68128000
110.53085327,-51.32843000
110.57853699,-54.66211000
110.62622070,-65.16481000
110.67390442,-57.82030000
110.72158813,-59.70177000
110.76927185,-65.05914000
110.81695557,-55.88366000
110.86463928,-56.71078000
110.91232300,-60.90178000
110.96000671,-56.69877000
111.00769043,-59.06159000
111.05537415,-59.63001000
111.10305786,-53.34912000
111.15074158,-53.68551000
111.19842529,-59.85410000
111.24610901,-78.22067000
111.29379272,-61.16658000
111.34147644,-57.23595000
111.38916016,-55.10093000
111.43684387,-58.10631000
111.48452759,-61.88857000
111.53221130,-58.10729000
111.57989502,-53.94644000
111.62757874,-53.17629000
111.67526245,-53.93643000
111.72294617,-62.17944000
111.77062988,-56.42235000
111.81831360,-53.32199000
111.86599731,-58.18243000
111.91368103,-56.11862000
111.96136475,-56.03056000
112.00904846,-53.88054000
112.05673218,-49.22905000
112.10441589,-49.54231000
112.15209961,-53.73701000
112.19978333,-51.59129000
112.24746704,-50.90950000
112.29515076,-51.98194000
112.34283447,-57.17769000
112.39051819,-62.33459000
112.43820190,-59.88335000
112.48588562,-76.05910000
112.53356934,-56.28677000
112.58125305,-52.93732000
112.62893677,-56.20747000
112.67662048,-59.21365000
112.72430420,-61.07645000
112.77198792,-65.08664000
112.81967163,-53.14887000
112.86735535,-50.51401000
112.91503906,-50.00713000
112.96272278,-49.49179000
113.01040649,-50.87347000
113.05809021,-54.90039000
113.10577393,-55.54742000
113.15345764,-52.12507000
113.20114136,-50.96672000
113.24882507,-52.01759000
113.29650879,-56.44646000
113.34419250,-59.36951000
113.39187622,-57.99049000
113.43955994,-66.41536000
113.48724365,-57.48561000
113.53492737,-53.54764000
113.58261108,-56.07584000
113.63029480,-61.35603000
113.67797852,-57.16142000
113.72566223,-59.73711000
113.77334595,-68.41112000
113.82102966,-58.47685000
113.86871338,-54.05344000
113.91639709,-55.93498000
113.96408081,-59.80404000
114.01176453,-69.09213000
114.05944824,-56.36036000
114.10713196,-54.31736000
114.15481567,-54.19595000
114.20249939,-55.79744000
114.25018311,-55.39499000
114.29786682,-52.16805000
114.34555054,-54.96982000
114.39323425,-72.00253000
114.44091797,-59.25246000
114.48860168,-56.27340000
114.53628540,-53.43682000
114.58396912,-58.11439000
114.63165283,-63.19899000
114.67933655,-62.89750000
114.72702026,-58.06773000
114.77470398,-50.66142000
114.82238770,-49.96949000
114.87007141,-56.59245000
114.91775513,-69.43060000
114.96543884,-58.61240000
115.01312256,-55.86153000
115.06080627,-58.77649000
115.10848999,-59.61712000
115.15617371,-55.13383000
115.20385742,-55.96168000
115.25154114,-71.32755000
115.29922485,-56.53738000
115.34690857,-52.58608000
115.39459229,-59.70832000
115.44227600,-54.17336000
115.48995972,-53.06602000
115.53764343,-60.26974000
115.58532715,-69.52050000
115.63301086,-65.50459000
115.68069458,-59.36436000
115.72837830,-52.69009000
115.77606201,-56.40091000
115.82374573,-62.55840000
115.87142944,-55.98067000
115.91911316,-56.78555000
115.96679688,-56.30301000
116.01448059,-57.78383000
116.06216431,-55.19009000
116.10984802,-54.36071000
116.15753174,-52.69932000
116.20521545,-50.57833000
116.25289917,-51.27545000
116.30058289,-59.08291000
116.34826660,-65.12406000
116.39595032,-61.71694000
116.44363403,-58.56769000
116.49131775,-56.25790000
116.53900146,-57.80681000
116.58668518,-76.80398000
116.63436890,-56.60259000
116.68205261,-52.56819000
116.72973633,-56.79732000
116.77742004,-61.94376000
116.82510376,-57.72644000
116.87278748,-53.86782000
116.92047119,-52.06818000
116.96815491,-57.13030000
117.01583862,-63.95189000
117.06352234,-62.87455000
117.11120605,-56.62887000
117.15888977,-57.66677000
117.20657349,-56.14809000
117.25425720,-62.68107000
117.30194092,-62.85986000
117.34962463,-54.41555000
117.39730835,-51.88259000
117.44499207,-53.53607000
117.49267578,-57.84250000
117.54035950,-55.50011000
117.58804321,-51.48479000
117.63572693,-49.44666000
117.68341064,-50.66566000
117.73109436,-59.95033000
117.77877808,-59.18366000
117.82646179,-56.84419000
117.87414551,-55.05658000
117.92182922,-60.79708000
117.96951294,-61.98494000
118.01719666,-55.39553000
118.06488037,-55.09872000
118.11256409,-59.91684000
118.16024780,-58.64019000
118.20793152,-53.50069000
118.25561523,-57.99097000
118.30329895,-73.20709000
118.35098267,-65.36119000
118.39866638,-58.18928000
118.44635010,-59.75071000
118.49403381,-58.85357000
118.54171753,-60.72162000
118.58940125,-66.31178000
118.63708496,-54.62952000
118.68476868,-53.28036000
118.73245239,-58.56550000
118.78013611,-54.41124000
118.82781982,-54.23512000
118.87550354,-52.17390000
118.92318726,-54.06847000
118.97087097,-54.40560000
119.01855469,-54.57508000
119.06623840,-57.87133000
119.11392212,-65.34488000
119.16160583,-75.60403000
119.20928955,-62.65226000
119.25697327,-56.74918000
119.30465698,-53.76961000
119.35234070,-54.23675000
119.40002441,-56.93834000
119.44770813,-61.02836000
119.49539185,-62.63057000
119.54307556,-60.86319000
119.59075928,-73.46629000
119.63844299,-59.72391000
119.68612671,-59.28255000
119.73381042,-52.70476000
119.78149414,-56.65121000
119.82917786,-54.21438000
119.87686157,-53.36008000
119.92454529,-61.80808000
119.97222900,-56.89675000
120.01991272,-55.17728000
120.06759644,-57.73273000
120.11528015,-68.71297000
120.16296387,-57.52104000
120.21064758,-53.78981000
120.25833130,-57.60215000
120.30601501,-60.57179000
120.35369873,-62.73083000
120.40138245,-56.51790000
120.44906616,-51.69799000
120.49674988,-51.40759000
120.54443359,-54.39343000
120.59211731,-60.30156000
120.63980103,-62.96532000
120.68748474,-56.27108000
120.73516846,-60.95289000
120.78285217,-71.17893000
120.83053589,-63.62008000
120.87821960,-59.58734000
120.92590332,-59.97642000
120.97358704,-60.41334000
121.02127075,-65.28430000
121.06895447,-60.33982000
121.11663818,-60.64924000
121.16432190,-64.21435000
121.21200562,-55.08567000
121.25968933,-58.60073000
121.30737305,-74.96847000
121.35505676,-63.40858000
121.40274048,-58.70079000
121.45042419,-71.38898000
121.49810791,-53.93898000
121.54579163,-51.33305000
121.59347534,-60.57436000
121.64115906,-51.00033000
121.68884277,-50.50854000
121.73652649,-65.13155000
121.78421021,-56.67113000
121.83189392,-68.80678000
121.87957764,-57.99897000
121.92726135,-55.16558000
121.97494507,-59.01472000
122.02262878,-59.47609000
122.07031250,-60.81303000
122.11799622,-57.08881000
122.16567993,-56.55480000
122.21336365,-55.05482000
122.26104736,-51.92854000
122.30873108,-54.06098000
122.35641479,-57.74847000
122.40409851,-58.51922000
122.45178223,-59.96603000
122.49946594,-56.73623000
122.54714966,-57.63134000
122.59483337,-61.87746000
122.64251709,-60.22943000
122.69020081,-64.50947000
122.73788452,-59.76493000
122.78556824,-50.08669000
122.83325195,-50.56124000
122.88093567,-62.99469000
122.92861938,-72.35670000
122.97630310,-57.51804000
123.02398682,-53.77789000
123.07167053,-62.51294000
123.11935425,-50.61940000
123.16703796,-54.07967000
123.21472168,-57.30944000
123.26240540,-52.83615000
123.31008911,-59.09550000
123.35777283,-55.77187000
123.40545654,-52.94049000
123.45314026,-54.71293000
123.50082397,-56.44810000
123.54850769,-78.58125000
123.59619141,-52.34871000
123.64387512,-52.58684000
123.69155884,-61.67469000
123.73924255,-52.66919000
123.78692627,-55.18878000
123.83460999,-55.16180000
123.88229370,-52.77302000
123.92997742,-55.68304000
123.97766113,-66.38653000
124.02534485,-64.12698000
124.07302856,-60.40745000
124.12071228,-55.33006000
124.16839600,-55.32244000
124.21607971,-59.88667000
124.26376343,-59.13864000
124.31144714,-54.36327000
124.35913086,-56.68314000
124.40681458,-60.46488000
124.45449829,-62.26508000
124.50218201,-62.64968000
124.54986572,-56.07251000
124.59754944,-56.65831000
124.64523315,-57.31357000
124.69291687,-52.50367000
124.74060059,-50.66268000
124.78828430,-56.09714000
124.83596802,-55.61488000
124.88365173,-53.48711000
124.93133545,-52.05492000
124.97901917,-58.09689000
125.02670288,-58.47798000
125.07438660,-68.72642000
125.12207031,-64.57935000
125.16975403,-66.18049000
125.21743774,-60.80368000
125.26512146,-61.89424000
125.31280518,-64.53810000
125.36048889,-61.56083000
125.40817261,-55.29169000
125.45585632,-56.79585000
125.50354004,-57.43231000
125.55122375,-61.70580000
125.59890747,-54.97320000
125.64659119,-51.58711000
125.69427490,-55.13469000
125.74195862,-61.12720000
125.78964233,-65.33720000
125.83732605,-55.76118000
125.88500977,-57.00807000
125.93269348,-62.84803000
125.98037720,-61.18432000
126.02806091,-56.38346000
126.07574463,-53.51137000
126.12342834,-56.56907000
126.17111206,-61.01820000
126.21879578,-56.83710000
126.26647949,-57.59506000
126.31416321,-54.11901000
126.36184692,-49.81564000
126.40953064,-48.68849000
126.45721436,-52.92141000
126.50489807,-53.20744000
126.55258179,-52.47086000
126.60026550,-53.88349000
126.64794922,-53.79705000
126.69563293,-51.07822000
126.74331665,-51.83831000
126.79100037,-57.10243000
126.83868408,-64.77933000
126.88636780,-62.25530000
126.93405151,-56.29557000
126.98173523,-51.29313000
127.02941895,-51.19426000
127.07710266,-52.90525000
127.12478638,-51.82760000
127.17247009,-57.31686000
127.22015381,-68.62668000
127.26783752,-72.40375000
127.31552124,-65.73721000
127.36320496,-66.51904000
127.41088867,-70.37437000
127.45857239,-68.80235000
127.50625610,-65.31819000
127.55393982,-54.61574000
127.60162354,-53.89492000
127.64930725,-57.32970000
127.69699097,-58.25024000
127.74467468,-58.17736000
127.79235840,-55.02659000
127.84004211,-54.84372000
127.88772583,-59.42638000
127.93540955,-61.31986000
127.98309326,-57.71877000
128.03077698,-57.90166000
128.07846069,-60.27790000
128.12614441,-59.98297000
128.17382813,-57.70395000
128.22151184,-55.40111000
128.26919556,-54.50117000
128.31687927,-60.77385000
128.36456299,-60.09240000
128.41224670,-56.46710000
128.45993042,-55.98177000
128.50761414,-58.92647000
128.55529785,-64.90992000
128.60298157,-64.06905000
128.65066528,-60.58241000
128.69834900,-57.73821000
128.74603271,-63.10937000
128.79371643,-54.75009000
128.84140015,-49.81289000
128.88908386,-53.13335000
128.93676758,-65.43209000
128.98445129,-53.51075000
129.03213501,-51.88221000
129.07981873,-53.14063000
129.12750244,-51.79263000
129.17518616,-53.77280000
129.22286987,-55.89423000
129.27055359,-52.25177000
129.31823730,-50.69479000
129.36592102,-53.51926000
129.41360474,-55.81454000
129.46128845,-52.46179000
129.50897217,-52.97623000
129.55665588,-58.82108000
129.60433960,-63.36125000
129.65202332,-56.81675000
129.69970703,-52.39462000
129.74739075,-52.51063000
129.79507446,-55.04497000
129.84275818,-60.47870000
129.89044189,-60.88565000
129.93812561,-67.17600000
129.98580933,-63.11558000
130.03349304,-59.45055000
130.08117676,-62.63985000
130.12886047,-61.41013000
130.17654419,-52.03362000
130.22422791,-53.60953000
130.27191162,-55.43605000
130.31959534,-56.77431000
130.36727905,-65.73171000
130.41496277,-58.98838000
130.46264648,-51.79980000
130.51033020,-51.69659000
130.55801392,-53.66730000
130.60569763,-56.87371000
130.65338135,-73.95311000
130.70106506,-53.43343000
130.74874878,-53.26828000
130.79643250,-64.59969000
130.84411621,-59.82733000
130.89179993,-61.25013000
130.93948364,-66.63888000
130.98716736,-61.80600000
131.03485107,-53.23063000
131.08253479,-50.96656000
131.13021851,-56.64206000
131.17790222,-64.59708000
131.22558594,-68.95873000
131.27326965,-59.76363000
131.32095337,-73.04411000
131.36863708,-58.13245000
131.41632080,-55.42256000
131.46400452,-53.81923000
131.51168823,-49.82986000
131.55937195,-46.98400000
131.60705566,-52.05602000
131.65473938,-54.20765000
131.70242310,-48.73827000
131.75010681,-52.66840000
131.79779053,-59.00465000
131.84547424,-58.23820000
131.89315796,-53.25053000
131.94084167,-54.96564000
131.98852539,-63.82203000
132.03620911,-57.35692000
132.08389282,-55.87045000
132.13157654,-56.43171000
132.17926025,-53.79703000
132.22694397,-52.78176000
132.27462769,-52.35780000
132.32231140,-53.11121000
132.36999512,-56.69655000
132.41767883,-65.33562000
132.46536255,-61.00538000
132.51304626,-55.05330000
132.56072998,-54.36738000
132.60841370,-56.19398000
132.65609741,-56.90413000
132.70378113,-57.02328000
132.75146484,-60.44978000
132.79914856,-69.33118000
132.84683228,-59.47478000
132.89451599,-56.77616000
132.94219971,-55.12836000
132.98988342,-56.08139000
133.03756714,-58.63654000
133.08525085,-62.29501000
133.13293457,-58.09509000
133.18061829,-56.26271000
133.22830200,-53.59771000
133.27598572,-55.02630000
133.32366943,-62.76722000
133.37135315,-59.14989000
133.41903687,-56.42066000
133.46672058,-53.26925000
133.51440430,-50.04838000
133.56208801,-49.68278000
133.60977173,-51.86445000
133.65745544,-60.94254000
133.70513916,-64.92209000
133.75282288,-59.17624000
133.80050659,-61.91881000
133.84819031,-60.72305000
133.89587402,-52.97978000
133.94355774,-51.83223000
133.99124146,-57.15433000
134.03892517,-61.57371000
134.08660889,-60.13802000
134.13429260,-59.18318000
134.18197632,-56.44600000
134.22966003,-66.22614000
134.27734375,-64.55060000
134.32502747,-57.36328000
134.37271118,-56.31169000
134.42039490,-61.67595000
134.46807861,-65.44591000
134.51576233,-55.79976000
134.56344604,-54.29858000
134.61112976,-62.38694000
134.65881348,-76.93552000
134.70649719,-61.35792000
134.75418091,-58.30009000
134.80186462,-55.27246000
134.84954834,-51.73775000
134.89723206,-61.67004000
134.94491577,-56.18882000
134.99259949,-54.09983000
135.04028320,-59.56909000
135.08796692,-57.63924000
135.13565063,-57.48339000
135.18333435,-57.49835000
135.23101807,-51.26879000
135.27870178,-51.95660000
135.32638550,-58.26399000
135.37406921,-58.76243000
135.42175293,-64.60415000
135.46943665,-60.51261000
135.51712036,-52.94832000
135.56480408,-52.06031000
135.61248779,-65.91449000
135.66017151,-53.75752000
135.70785522,-52.02420000
135.75553894,-54.14783000
135.80322266,-67.49818000
135.85090637,-58.24596000
135.89859009,-53.38726000
135.94627380,-54.23617000
135.99395752,-62.19006000
136.04164124,-64.92331000
136.08932495,-63.61739000
136.13700867,-58.36125000
136.18469238,-55.58532000
136.23237610,-55.55996000
136.28005981,-57.47872000
136.32774353,-56.92663000
136.37542725,-70.11084000
136.42311096,-67.87105000
136.47079468,-59.93298000
136.51847839,-59.10214000
136.56616211,-60.21022000
136.61384583,-52.52533000
136.66152954,-53.62925000
136.70921326,-67.75479000
136.75689697,-59.00582000
136.80458069,-60.89367000
136.85226440,-57.42701000
136.89994812,-50.69181000
136.94763184,-51.42639000
136.99531555,-60.68362000
137.04299927,-61.26952000
137.09068298,-60.65669000
137.13836670,-57.22271000
137.18605042,-54.26274000
137.23373413,-56.49472000
137.28141785,-55.08820000
137.32910156,-52.06099000
137.37678528,-52.24592000
137.42446899,-56.55171000
137.47215271,-54.84648000
137.51983643,-55.90427000
137.56752014,-60.05391000
137.61520386,-65.60676000
137.66288757,-72.05873000
137.71057129,-55.71917000
137.75825500,-55.94892000
137.80593872,-60.68347000
137.85362244,-56.33655000
137.90130615,-61.27575000
137.94898987,-52.31398000
137.99667358,-49.39664000
138.04435730,-53.18809000
138.09204102,-58.42607000
138.13972473,-57.09192000
138.18740845,-57.80841000
138.23509216,-55.91174000
138.28277588,-57.31075000
138.33045959,-54.58162000
138.37814331,-53.05894000
138.42582703,-61.16598000
138.47351074,-62.37525000
138.52119446,-60.77214000
138.56887817,-59.24265000
138.61656189,-55.03599000
138.66424561,-54.45417000
138.71192932,-56.66839000
138.75961304,-62.45836000
138.80729675,-66.54601000
138.85498047,-56.40169000
138.90266418,-51.97472000
138.95034790,-55.98700000
138.99803162,-57.81044000
139.04571533,-56.75594000
139.09339905,-57.25816000
139.14108276,-57.56153000
139.18876648,-61.92040000
139.23645020,-55.74382000
139.28413391,-53.45575000
139.33181763,-59.10175000
139.37950134,-61.84182000
139.42718506,-63.05300000
139.47486877,-62.61232000
139.52255249,-56.31015000
139.57023621,-56.05793000
139.61791992,-63.47716000
139.66560364,-62.82364000
139.71328735,-58.22969000
139.76097107,-60.70315000
139.80865479,-66.44233000
139.85633850,-61.17621000
139.90402222,-75.49277000
139.95170593,-70.01334000
139.99938965,-59.34735000
140.04707336,-56.47825000
140.09475708,-64.08505000
140.14244080,-65.66000000
140.19012451,-57.31361000
140.23780823,-57.25571000
140.28549194,-54.85157000
140.33317566,-53.33176000
140.38085938,-54.40347000
140.42854309,-55.82406000
140.47622681,-59.56564000
140.52391052,-58.53537000
140.57159424,-57.70649000
140.61927795,-56.64442000
140.66696167,-57.12906000
140.71464539,-50.56921000
140.76232910,-51.24184000
140.81001282,-54.12163000
140.85769653,-54.32903000
140.90538025,-56.80431000
140.95306396,-56.91295000
141.00074768,-63.19248000
141.04843140,-61.85440000
141.09611511,-57.12388000
141.14379883,-55.33335000
141.19148254,-57.53753000
141.23916626,-58.93984000
141.28684998,-52.77985000
141.33453369,-52.11968000
141.38221741,-56.92936000
141.42990112,-58.70073000
141.47758484,-50.82644000
141.52526855,-48.12129000
141.57295227,-49.39529000
141.62063599,-56.22448000
141.66831970,-59.93192000
141.71600342,-54.86567000
141.76368713,-57.13284000
141.81137085,-51.14929000
141.85905457,-51.08560000
141.90673828,-58.91647000
141.95442200,-56.44339000
142.00210571,-53.97415000
142.04978943,-55.95528000
142.09747314,-58.88535000
142.14515686,-55.34975000
142.19284058,-54.41403000
142.24052429,-54.26155000
142.28820801,-52.51764000
142.33589172,-51.42069000
142.38357544,-53.12202000
142.43125916,-60.36612000
142.47894287,-59.10136000
142.52662659,-59.34356000
142.57431030,-73.74999000
142.62199402,-57.88354000
142.66967773,-52.11015000
142.71736145,-53.45171000
142.76504517,-70.19251000
142.81272888,-55.50953000
142.86041260,-61.37441000
142.90809631,-58.56716000
142.95578003,-61.27985000
143.00346375,-71.23844000
143.05114746,-63.52470000
143.09883118,-58.93082000
143.14651489,-57.41039000
143.19419861,-63.83073000
143.24188232,-60.98216000
143.28956604,-55.34501000
143.33724976,-60.69680000
143.38493347,-56.18550000
143.43261719,-57.80548000
143.48030090,-63.94883000
143.52798462,-58.88075000
143.57566833,-56.97660000
143.62335205,-61.14804000
143.67103577,-61.26968000
143.71871948,-52.55780000
143.76640320,-51.23663000
143.81408691,-55.24188000
143.86177063,-58.04387000
143.90945435,-59.06299000
143.95713806,-55.44766000
144.00482178,-56.27392000
144.05250549,-60.47706000
144.10018921,-56.62465000
144.14787292,-56.34821000
144.19555664,-59.13447000
144.24324036,-65.72737000
144.29092407,-52.96627000
144.33860779,-57.36366000
144.38629150,-64.43895000
144.43397522,-58.13556000
144.48165894,-53.17799000
144.52934265,-56.45178000
144.57702637,-52.65907000
144.62471008,-49.72403000
144.67239380,-58.32364000
144.72007751,-61.11965000
144.76776123,-59.84714000
144.81544495,-69.88858000
144.86312866,-63.54923000
144.91081238,-61.19742000
144.95849609,-63.16438000
145.00617981,-78.68781000
145.05386353,-70.12267000
145.10154724,-70.42802000
145.14923096,-60.31019000
145.19691467,-66.45509000
145.24459839,-60.70055000
145.29228210,-61.31807000
145.33996582,-66.65201000
145.38764954,-64.47548000
145.43533325,-53.29087000
145.48301697,-50.28268000
145.53070068,-54.40471000
145.57838440,-61.48708000
145.62606812,-55.65009000
145.67375183,-64.03014000
145.72143555,-58.72408000
145.76911926,-58.61367000
145.81680298,-55.68727000
145.86448669,-71.93848000
145.91217041,-61.33165000
145.95985413,-61.16026000
146.00753784,-56.56974000
146.05522156,-54.84872000
146.10290527,-55.61602000
146.15058899,-58.41011000
146.19827271,-62.48912000
146.24595642,-54.54729000
146.29364014,-54.01589000
146.34132385,-66.85632000
146.38900757,-59.91101000
146.43669128,-58.37621000
146.48437500,-65.61200000
146.53205872,-51.90512000
146.57974243,-50.95062000
146.62742615,-52.40883000
146.67510986,-52.48453000
146.72279358,-58.87741000
146.77047729,-56.21983000
146.81816101,-54.28414000
146.86584473,-64.36620000
146.91352844,-65.73225000
146.96121216,-71.32459000
147.00889587,-66.23869000
147.05657959,-58.93716000
147.10426331,-64.04330000
147.15194702,-61.19431000
147.19963074,-58.57473000
147.24731445,-59.59723000
147.29499817,-56.68723000
147.34268188,-60.95097000
147.39036560,-64.95163000
147.43804932,-58.34154000
147.48573303,-57.92206000
147.53341675,-57.44457000
147.58110046,-57.37180000
147.62878418,-54.67268000
147.67646790,-59.02631000
147.72415161,-75.17768000
147.77183533,-60.18351000
147.81951904,-61.68102000
147.86720276,-61.68747000
147.91488647,-59.72719000
147.96257019,-60.07123000
148.01025391,-53.30759000
148.05793762,-57.83915000
148.10562134,-66.45670000
148.15330505,-62.02588000
148.20098877,-66.67789000
148.24867249,-60.93986000
148.29635620,-63.37657000
148.34403992,-65.27276000
148.39172363,-60.62231000
148.43940735,-66.33284000
148.48709106,-61.45540000
148.53477478,-54.46416000
148.58245850,-54.94386000
148.63014221,-60.49804000
148.67782593,-59.77457000
148.72550964,-55.82440000
148.77319336,-59.24294000
148.82087708,-70.32788000
148.86856079,-62.25972000
148.91624451,-56.69144000
148.96392822,-65.47954000
149.01161194,-62.89667000
149.05929565,-66.94131000
149.10697937,-61.47455000
149.15466309,-56.03502000
149.20234680,-59.38715000
149.25003052,-58.48541000
149.29771423,-63.38387000
149.34539795,-53.28810000
149.39308167,-52.44131000
149.44076538,-61.62565000
149.48844910,-61.37058000
149.53613281,-59.44200000
149.58381653,-63.17799000
149.63150024,-59.67170000
149.67918396,-61.91302000
149.72686768,-55.90505000
149.77455139,-53.09760000
149.82223511,-50.40608000
149.86991882,-50.92332000
149.91760254,-53.75616000
149.96528625,-56.89923000
150.01296997,-62.32750000
150.06065369,-63.24870000
150.10833740,-60.33435000
150.15602112,-59.97736000
150.20370483,-59.01646000
150.25138855,-53.43975000
150.29907227,-50.89738000
150.34675598,-51.81647000
150.39443970,-51.45958000
150.44212341,-54.60040000
150.48980713,-68.46024000
150.53749084,-55.79122000
150.58517456,-54.73309000
150.63285828,-62.23780000
150.68054199,-54.19682000
150.72822571,-54.58464000
150.77590942,-62.40726000
150.82359314,-56.41022000
150.87127686,-60.98871000
150.91896057,-58.55314000
150.96664429,-51.21848000
151.01432800,-53.72184000
151.06201172,-58.19731000
151.10969543,-52.06446000
151.15737915,-53.17826000
151.20506287,-63.26910000
151.25274658,-59.08001000
151.30043030,-64.76289000
151.34811401,-70.48087000
151.39579773,-59.30682000
151.44348145,-57.60039000
151.49116516,-53.62258000
151.53884888,-55.47083000
151.58653259,-70.43643000
151.63421631,-68.79645000
151.68190002,-61.14122000
151.72958374,-54.84592000
151.77726746,-58.55546000
151.82495117,-71.05392000
151.87263489,-54.73018000
151.92031860,-56.19926000
151.96800232,-66.41833000
152.01568604,-58.41103000
152.06336975,-61.16809000
152.11105347,-73.29082000
152.15873718,-64.32891000
152.20642090,-56.01096000
152.25410461,-53.71167000
152.30178833,-59.51344000
152.34947205,-76.22215000
152.39715576,-60.19518000
152.44483948,-57.46881000
152.49252319,-53.48335000
152.54020691,-52.57559000
152.58789063,-53.21677000
152.63557434,-53.72484000
152.68325806,-60.21413000
152.73094177,-61.64305000
152.77862549,-58.41519000
152.82630920,-67.80318000
152.87399292,-53.37429000
152.92167664,-54.14287000
152.96936035,-60.14897000
153.01704407,-63.03095000
153.06472778,-57.90086000
153.11241150,-54.72408000
153.16009521,-52.20215000
153.20777893,-50.36961000
153.25546265,-53.01847000
153.30314636,-83.61234000
153.35083008,-52.45689000
153.39851379,-51.96469000
153.44619751,-59.03155000
153.49388123,-64.78555000
153.54156494,-61.75971000
153.58924866,-60.05577000
153.63693237,-62.82316000
153.68461609,-65.39816000
153.73229980,-58.52053000
153.77998352,-56.23749000
153.82766724,-54.80069000
153.87535095,-62.86974000
153.92303467,-57.78246000
153.97071838,-53.08755000
154.01840210,-57.28450000
154.06608582,-69.25656000
154.11376953,-57.46164000
154.16145325,-56.09351000
154.20913696,-54.49301000
154.25682068,-49.27311000
154.30450439,-50.85735000
154.35218811,-87.80179000
154.39987183,-53.86122000
154.44755554,-51.91908000
154.49523926,-53.25124000
154.54292297,-55.53256000
154.59060669,-61.40350000
154.63829041,-57.03690000
154.68597412,-55.92097000
154.73365784,-59.48338000
154.78134155,-67.53983000
154.82902527,-57.56908000
154.87670898,-55.09456000
154.92439270,-52.71465000
154.97207642,-52.51221000
155.01976013,-57.84234000
155.06744385,-61.43379000
155.11512756,-62.23312000
155.16281128,-62.75193000
155.21049500,-58.36692000
155.25817871,-55.67149000
155.30586243,-56.09236000
155.35354614,-65.02657000
155.40122986,-61.40101000
155.44891357,-57.88111000
155.49659729,-58.21012000
155.54428101,-64.40253000
155.59196472,-56.83561000
155.63964844,-56.81808000
155.68733215,-58.94950000
155.73501587,-59.11306000
155.78269958,-56.30389000
155.83038330,-57.24384000
155.87806702,-50.94278000
155.92575073,-50.40574000
155.97343445,-56.90022000
156.02111816,-62.24596000
156.06880188,-61.45595000
156.11648560,-56.89785000
156.16416931,-52.27325000
156.21185303,-51.50913000
156.25953674,-62.69912000
156.30722046,-57.45012000
156.35490417,-62.15643000
156.40258789,-65.82748000
156.45027161,-71.03998000
156.49795532,-61.07698000
156.54563904,-57.53540000
156.59332275,-55.98120000
156.64100647,-60.36253000
156.68869019,-75.79108000
156.73637390,-63.03948000
156.78405762,-64.40463000
156.83174133,-81.20015000
156.87942505,-71.19355000
156.92710876,-62.34118000
156.97479248,-55.56133000
157.02247620,-53.39803000
157.07015991,-53.56683000
157.11784363,-55.10000000
157.16552734,-53.17611000
157.21321106,-57.57898000
157.26089478,-58.13797000
157.30857849,-52.64989000
157.35626221,-59.75294000
157.40394592,-58.60382000
157.45162964,-52.12747000
157.49931335,-52.37322000
157.54699707,-54.13987000
157.59468079,-58.69742000
157.64236450,-54.39165000
157.69004822,-52.97125000
157.73773193,-66.12152000
157.78541565,-55.76943000
157.83309937,-60.61533000
157.88078308,-70.44677000
157.92846680,-53.65406000
157.97615051,-51.41463000
158.02383423,-58.68255000
158.07151794,-64.40065000
158.11920166,-74.39088000
158.16688538,-59.58169000
158.21456909,-53.92381000
158.26225281,-54.80930000
158.30993652,-53.82523000
158.35762024,-54.37278000
158.40530396,-62.12572000
158.45298767,-57.19827000
158.50067139,-58.85633000
158.54835510,-59.21305000
158.59603882,-56.18116000
158.64372253,-57.42542000
158.69140625,-60.35429000
158.73908997,-55.33810000
158.78677368,-57.50772000
158.83445740,-62.44709000
158.88214111,-59.83062000
158.92982483,-55.08896000
158.97750854,-62.21144000
159.02519226,-57.42500000
159.07287598,-55.47210000
159.12055969,-70.62010000
159.16824341,-61.61463000
159.21592712,-59.43782000
159.26361084,-55.28889000
159.31129456,-66.04308000
159.35897827,-64.70735000
159.40666199,-61.09671000
159.45434570,-56.62399000
159.50202942,-55.87523000
159.54971313,-55.25479000
159.59739685,-56.46765000
159.64508057,-52.03603000
159.69276428,-52.30036000
159.74044800,-51.73516000
159.78813171,-55.30824000
159.83581543,-58.39606000
159.88349915,-66.69203000
159.93118286,-58.10535000
159.97886658,-51.59169000
160.02655029,-50.33049000
160.07423401,-56.35756000
160.12191772,-58.78818000
160.16960144,-53.95989000
160.21728516,-57.03684000
160.26496887,-60.05017000
160.31265259,-58.26579000
160.36033630,-75.10897000
160.40802002,-67.31879000
160.45570374,-53.61020000
160.50338745,-48.15496000
160.55107117,-47.74702000
160.59875488,-51.88103000
160.64643860,-53.64114000
160.69412231,-54.90773000
160.74180603,-56.16203000
160.78948975,-54.07220000
160.83717346,-62.59067000
160.88485718,-54.44305000
160.93254089,-54.86287000
160.98022461,-61.92229000
161.02790833,-57.81640000
161.07559204,-53.65086000
161.12327576,-56.53242000
161.17095947,-58.84928000
161.21864319,-60.33340000
161.26632690,-63.11192000
161.31401062,-84.00348000
161.36169434,-64.80399000
161.40937805,-65.09422000
161.45706177,-59.73503000
161.50474548,-51.63591000
161.55242920,-53.22543000
161.60011292,-67.39732000
161.64779663,-58.81199000
161.69548035,-66.52010000
161.74316406,-57.35811000
161.79084778,-54.43218000
161.83853149,-53.19568000
161.88621521,-52.55994000
161.93389893,-53.73973000
161.98158264,-51.94683000
162.02926636,-55.07119000
162.07695007,-67.94410000
162.12463379,-55.82963000
162.17231750,-55.98728000
162.22000122,-62.14423000
162.26768494,-58.80129000
162.31536865,-56.05958000
162.36305237,-60.13054000
162.41073608,-71.47754000
162.45841980,-63.22451000
162.50610352,-64.12504000
162.55378723,-54.21089000
162.60147095,-50.32170000
162.64915466,-47.96033000
162.69683838,-46.48448000
162.74452209,-46.76398000
162.79220581,-49.08049000
162.83988953,-53.19351000
162.88757324,-51.80176000
162.93525696,-50.20695000
162.98294067,-50.23614000
163.03062439,-51.05508000
163.07830811,-53.40691000
163.12599182,-58.18389000
163.17367554,-61.44921000
163.22135925,-63.50185000
163.26904297,-57.48303000
163.31672668,-57.26334000
163.36441040,-50.96819000
163.41209412,-51.98494000
163.45977783,-74.68094000
163.50746155,-58.18636000
163.55514526,-65.42876000
163.60282898,-64.56414000
163.65051270,-59.92196000
163.69819641,-58.04084000
163.74588013,-55.37495000
163.79356384,-52.53403000
163.84124756,-54.48613000
163.88893127,-55.60608000
163.93661499,-54.59106000
163.98429871,-56.78844000
164.03198242,-67.42240000
164.07966614,-70.17970000
164.12734985,-58.95505000
164.17503357,-58.01746000
164.22271729,-58.82064000
164.27040100,-53.50798000
164.31808472,-49.43097000
164.36576843,-49.73032000
164.41345215,-55.69297000
164.46113586,-53.16378000
164.50881958,-49.87106000
164.55650330,-54.37947000
164.60418701,-59.84789000
164.65187073,-56.97748000
164.69955444,-55.76823000
164.74723816,-58.21360000
164.79492188,-63.39369000
164.84260559,-61.24657000
164.89028931,-62.13074000
164.93797302,-59.64785000
164.98565674,-56.47606000
165.03334045,-59.30917000
165.08102417,-59.49202000
165.12870789,-50.94149000
165.17639160,-55.63263000
165.22407532,-61.80593000
165.27175903,-55.80082000
165.31944275,-60.64617000
165.36712646,-58.58784000
165.41481018,-58.45847000
165.46249390,-65.32909000
165.51017761,-54.75678000
165.55786133,-49.11318000
165.60554504,-49.48592000
165.65322876,-54.72153000
165.70091248,-56.94061000
165.74859619,-63.41692000
165.79627991,-53.53489000
165.84396362,-51.38142000
165.89164734,-50.17585000
165.93933105,-52.00389000
165.98701477,-55.09081000
166.03469849,-52.26772000
166.08238220,-54.55408000
166.13006592,-59.19084000
166.17774963,-56.41826000
166.22543335,-56.09514000
166.27311707,-59.69584000
166.32080078,-67.49152000
166.36848450,-65.12787000
166.41616821,-70.95687000
166.46385193,-58.91184000
166.51153564,-62.38895000
166.55921936,-54.83970000
166.60690308,-53.53769000
166.65458679,-57.46899000
166.70227051,-66.00351000
166.74995422,-51.57919000
166.79763794,-49.76009000
166.84532166,-55.44984000
166.89300537,-78.10054000
166.94068909,-56.92232000
166.98837280,-52.53461000
167.03605652,-56.19476000
167.08374023,-63.28373000
167.13142395,-61.12423000
167.17910767,-60.56852000
167.22679138,-68.86719000
167.27447510,-56.91696000
167.32215881,-56.18372000
167.36984253,-59.77477000
167.41752625,-54.99981000
167.46520996,-52.77825000
167.51289368,-52.27454000
167.56057739,-57.04191000
167.60826111,-63.56272000
167.65594482,-54.32134000
167.70362854,-54.45016000
167.75131226,-70.26527000
167.79899597,-53.19996000
167.84667969,-51.89441000
167.89436340,-55.65758000
167.94204712,-54.21873000
167.98973083,-53.48924000
168.03741455,-62.90665000
168.08509827,-65.97488000
168.13278198,-63.25472000
168.18046570,-59.53937000
168.22814941,-56.79874000
168.27583313,-59.78685000
168.32351685,-59.24816000
168.37120056,-56.88155000
168.41888428,-65.96939000
168.46656799,-73.58724000
168.51425171,-56.95810000
168.56193542,-57.92527000
168.60961914,-65.52055000
168.65730286,-57.34911000
168.70498657,-57.15484000
168.75267029,-60.70960000
168.80035400,-66.24701000
168.84803772,-69.20353000
168.89572144,-54.32367000
168.94340515,-55.71304000
168.99108887,-55.73210000
169.03877258,-51.73977000
169.08645630,-55.46968000
169.13414001,-60.53591000
169.18182373,-65.85318000
169.22950745,-65.43024000
169.27719116,-57.27984000
169.32487488,-55.76655000
169.37255859,-54.56517000
169.42024231,-53.86317000
169.46792603,-57.32264000
169.51560974,-62.40626000
169.56329346,-62.65129000
169.61097717,-61.97398000
169.65866089,-59.82290000
169.70634460,-55.29516000
169.75402832,-56.18457000
169.80171204,-63.61606000
169.84939575,-72.00986000
169.89707947,-57.80680000
169.94476318,-52.30299000
169.99244690,-54.92699000
170.04013062,-56.43011000
170.08781433,-55.26808000
170.13549805,-60.72668000
170.18318176,-67.65576000
170.23086548,-56.28710000
170.27854919,-53.09963000
170.32623291,-54.94994000
170.37391663,-56.13237000
170.42160034,-53.28374000
170.46928406,-58.12857000
170.51696777,-57.91451000
170.56465149,-52.81613000
170.61233521,-53.93640000
170.66001892,-64.89017000
170.70770264,-54.45264000
170.75538635,-59.11556000
170.80307007,-72.17745000
170.85075378,-61.82301000
170.89843750,-57.64270000
170.94612122,-61.08495000
170.99380493,-77.89987000
171.04148865,-75.41940000
171.08917236,-68.92744000
171.13685608,-71.79264000
171.18453979,-60.22989000
171.23222351,-60.08523000
171.27990723,-64.14845000
171.32759094,-57.40314000
171.37527466,-50.19964000
171.42295837,-51.21221000
171.47064209,-57.05021000
171.51832581,-58.56174000
171.56600952,-66.68201000
171.61369324,-68.12098000
171.66137695,-60.43492000
171.70906067,-54.46846000
171.75674438,-54.01468000
171.80442810,-54.51351000
171.85211182,-54.14729000
171.89979553,-57.56332000
171.94747925,-62.44545000
171.99516296,-55.56635000
172.04284668,-50.06049000
172.09053040,-50.36185000
172.13821411,-57.47799000
172.18589783,-68.73681000
172.23358154,-55.56430000
172.28126526,-56.20403000
172.32894897,-65.63418000
172.37663269,-58.63297000
172.42431641,-54.57363000
172.47200012,-54.36890000
172.51968384,-60.14894000
172.56736755,-67.56984000
172.61505127,-58.65709000
172.66273499,-59.27282000
172.71041870,-60.18953000
172.75810242,-52.89162000
172.80578613,-52.61612000
172.85346985,-60.68814000
172.90115356,-68.28099000
172.94883728,-56.87150000
172.99652100,-52.87447000
173.04420471,-60.19436000
173.09188843,-55.12823000
173.13957214,-51.95195000
173.18725586,-54.60166000
173.23493958,-54.88167000
173.28262329,-56.55725000
173.33030701,-63.43418000
173.37799072,-57.73729000
173.42567444,-52.69212000
173.47335815,-54.15668000
173.52104187,-62.41874000
173.56872559,-55.80443000
173.61640930,-55.50301000
173.66409302,-53.91273000
173.71177673,-49.64808000
173.75946045,-49.79046000
173.80714417,-56.12768000
173.85482788,-69.06921000
173.90251160,-59.71925000
173.95019531,-57.45766000
173.99787903,-60.68455000
174.04556274,-61.42544000
174.09324646,-62.11867000
174.14093018,-60.37254000
174.18861389,-69.50608000
174.23629761,-59.78193000
174.28398132,-55.28938000
174.33166504,-54.69434000
174.37934875,-54.38469000
174.42703247,-55.64548000
174.47471619,-57.46070000
174.52239990,-54.70921000
174.57008362,-52.26682000
174.61776733,-61.26794000
174.66545105,-55.14068000
174.71313477,-53.38289000
174.76081848,-56.12123000
174.80850220,-56.11575000
174.85618591,-59.24072000
174.90386963,-58.42773000
174.95155334,-55.48915000
174.99923706,-58.32033000
175.04692078,-57.31191000
175.09460449,-50.53924000
175.14228821,-50.07971000
175.18997192,-50.51410000
175.23765564,-54.07045000
175.28533936,-62.92071000
175.33302307,-67.94194000
175.38070679,-63.91791000
175.42839050,-61.14843000
175.47607422,-61.25906000
175.52375793,-58.83643000
175.57144165,-65.70673000
175.61912537,-62.32234000
175.66680908,-54.94115000
175.71449280,-48.98562000
175.76217651,-53.47676000
175.80986023,-61.99077000
175.85754395,-52.50891000
175.90522766,-51.51997000
175.95291138,-54.60297000
176.00059509,-63.86251000
176.04827881,-69.81953000
176.09596252,-59.42541000
176.14364624,-54.99014000
176.19132996,-56.07567000
176.23901367,-56.41154000
176.28669739,-58.55725000
176.33438110,-60.64059000
176.38206482,-61.92443000
176.42974854,-54.33424000
176.47743225,-53.08361000
176.52511597,-59.46462000
176.57279968,-60.52817000
176.62048340,-54.83040000
176.66816711,-55.78431000
176.71585083,-54.19836000
176.76353455,-52.32640000
176.81121826,-50.00247000
176.85890198,-50.15668000
176.90658569,-52.66994000
176.95426941,-53.14530000
177.00195313,-51.29118000
177.04963684,-51.48545000
177.09732056,-54.87276000
177.14500427,-58.10105000
177.19268799,-62.11685000
177.24037170,-66.58536000
177.28805542,-68.82953000
177.33573914,-59.36831000
177.38342285,-56.68364000
177.43110657,-86.15616000
177.47879028,-57.39628000
177.52647400,-54.72534000
177.57415771,-49.72686000
177.62184143,-50.20396000
177.66952515,-56.20704000
177.71720886,-64.42989000
177.76489258,-58.85952000
177.81257629,-60.03860000
177.86026001,-55.26260000
177.90794373,-59.14404000
177.95562744,-58.31005000
178.00331116,-56.10279000
178.05099487,-63.15231000
178.09867859,-59.16492000
178.14636230,-52.51804000
178.19404602,-49.31280000
178.24172974,-49.70296000
178.28941345,-52.12775000
178.33709717,-53.08705000
178.38478088,-52.10319000
178.43246460,-55.98900000
178.48014832,-62.15672000
178.52783203,-60.12690000
178.57551575,-56.50116000
178.62319946,-53.27330000
178.67088318,-56.63402000
178.71856689,-59.23264000
178.76625061,-71.70226000
178.81393433,-56.57154000
178.86161804,-51.03064000
178.90930176,-50.59048000
178.95698547,-51.20260000
179.00466919,-54.93992000
179.05235291,-59.12773000
179.10003662,-59.99332000
179.14772034,-56.79213000
179.19540405,-52.94085000
179.24308777,-53.71491000
179.29077148,-56.87358000
179.33845520,-54.23885000
179.38613892,-54.63630000
179.43382263,-54.02432000
179.48150635,-51.74110000
179.52919006,-49.99179000
179.57687378,-52.48493000
179.62455750,-63.83936000
179.67224121,-61.03336000
179.71992493,-64.43232000
179.76760864,-55.81366000
179.81529236,-53.67160000
179.86297607,-55.07908000
179.91065979,-55.60154000
179.95834351,-56.36927000
180.00602722,-61.62320000
180.05371094,-57.39288000
180.10139465,-51.22613000
180.14907837,-54.21292000
180.19676208,-62.68120000
180.24444580,-59.27094000
180.29212952,-63.20972000
180.33981323,-59.44352000
180.38749695,-55.19539000
180.43518066,-54.74936000
180.48286438,-55.59206000
180.53054810,-56.42883000
180.57823181,-56.36733000
180.62591553,-55.01036000
180.67359924,-56.49014000
180.72128296,-50.65382000
180.76896667,-50.11206000
180.81665039,-50.01131000
180.86433411,-53.45366000
180.91201782,-59.06876000
180.95970154,-65.62684000
181.00738525,-60.68324000
181.05506897,-59.73210000
181.10275269,-52.83190000
181.15043640,-54.15144000
181.19812012,-63.94516000
181.24580383,-66.59505000
181.29348755,-61.11545000
181.34117126,-59.18179000
181.38885498,-54.62110000
181.43653870,-54.30447000
181.48422241,-61.79916000
181.53190613,-59.59192000
181.57958984,-55.07722000
181.62727356,-56.24100000
181.67495728,-57.60458000
181.72264099,-63.61647000
181.77032471,-56.70166000
181.81800842,-57.32992000
181.86569214,-64.62826000
181.91337585,-63.83105000
181.96105957,-61.33459000
182.00874329,-63.10005000
182.05642700,-56.81251000
182.10411072,-53.89725000
182.15179443,-55.93806000
182.19947815,-57.84084000
182.24716187,-55.06763000
182.29484558,-56.37965000
182.34252930,-56.72803000
182.39021301,-52.53553000
182.43789673,-50.09263000
182.48558044,-53.88377000
182.53326416,-59.02674000
182.58094788,-66.77383000
182.62863159,-56.67156000
182.67631531,-52.51026000
182.72399902,-57.13924000
182.77168274,-62.19510000
182.81936646,-65.51823000
182.86705017,-59.35663000
182.91473389,-54.20638000
182.96241760,-53.67435000
183.01010132,-53.56028000
183.05778503,-53.12750000
183.10546875,-54.14486000
183.15315247,-56.14839000
183.20083618,-60.88634000
183.24851990,-67.02796000
183.29620361,-64.54648000
183.34388733,-59.69488000
183.39157104,-60.32420000
183.43925476,-55.37394000
183.48693848,-50.37165000
183.53462219,-52.97443000
183.58230591,-58.07143000
183.62998962,-53.45505000
183.67767334,-51.71490000
183.72535706,-54.24134000
183.77304077,-57.29096000
183.82072449,-60.89706000
183.86840820,-57.09885000
183.91609192,-49.37853000
183.96377563,-55.04527000
184.01145935,-61.14888000
184.05914307,-60.84547000
184.10682678,-59.62582000
184.15451050,-58.03957000
184.20219421,-58.95835000
184.24987793,-57.17696000
184.29756165,-55.82826000
184.34524536,-58.68334000
184.39292908,-56.41969000
184.44061279,-55.11760000
184.48829651,-56.10563000
184.53598022,-53.08960000
184.58366394,-50.42303000
184.63134766,-50.26482000
184.67903137,-49.66714000
184.72671509,-59.42233000
184.77439880,-51.94373000
184.82208252,-49.64417000
184.86976624,-63.38247000
184.91744995,-52.98801000
184.96513367,-56.43806000
185.01281738,-66.05363000
185.06050110,-69.70676000
185.10818481,-59.56844000
185.15586853,-53.30317000
185.20355225,-54.43675000
185.25123596,-64.56342000
185.29891968,-59.52078000
185.34660339,-62.58850000
185.39428711,-60.72369000
185.44197083,-56.22147000
185.48965454,-57.44989000
185.53733826,-55.10201000
185.58502197,-53.05775000
185.63270569,-51.62976000
185.68038940,-58.29119000
185.72807312,-58.64392000
185.77575684,-62.10188000
185.82344055,-54.83019000
185.87112427,-60.28326000
185.91880798,-54.24483000
185.96649170,-50.52118000
186.01417542,-65.00840000
186.06185913,-68.65932000
186.10954285,-53.59639000
186.15722656,-49.78042000
186.20491028,-55.61388000
186.25259399,-61.35481000
186.30027771,-55.04137000
186.34796143,-52.83760000
186.39564514,-52.77794000
186.44332886,-53.86755000
186.49101257,-53.75700000
186.53869629,-58.50210000
186.58638000,-54.07685000
186.63406372,-51.79892000
186.68174744,-53.74491000
186.72943115,-62.80506000
186.77711487,-71.57108000
186.82479858,-63.93394000
186.87248230,-60.36022000
186.92016602,-59.81595000
186.96784973,-67.05611000
187.01553345,-61.77814000
187.06321716,-55.18049000
187.11090088,-60.01085000
187.15858459,-59.60546000
187.20626831,-54.61259000
187.25395203,-58.72458000
187.30163574,-56.28405000
187.34931946,-57.48781000
187.39700317,-57.03726000
187.44468689,-58.71468000
187.49237061,-57.26717000
187.54005432,-60.69786000
187.58773804,-57.98205000
187.63542175,-54.27959000
187.68310547,-59.48534000
187.73078918,-57.67866000
187.77847290,-52.18946000
187.82615662,-53.98797000
187.87384033,-59.71484000
187.92152405,-58.45039000
187.96920776,-54.64698000
188.01689148,-56.76670000
188.06457520,-60.74302000
188.11225891,-60.32588000
188.15994263,-61.04311000
188.20762634,-54.60289000
188.25531006,-58.06925000
188.30299377,-59.08897000
188.35067749,-56.16468000
188.39836121,-54.65178000
188.44604492,-55.79372000
188.49372864,-69.07364000
188.54141235,-60.46910000
188.58909607,-62.76543000
188.63677979,-59.02912000
188.68446350,-51.82436000
188.73214722,-54.13121000
188.77983093,-57.45442000
188.82751465,-53.39058000
188.87519836,-53.19802000
188.92288208,-55.14685000
188.97056580,-55.33867000
189.01824951,-55.80860000
189.06593323,-58.74123000
189.11361694,-56.88318000
189.16130066,-57.63549000
189.20898438,-58.97728000
189.25666809,-52.51528000
189.30435181,-51.70567000
189.35203552,-58.64931000
189.39971924,-57.45865000
189.44740295,-58.20380000
189.49508667,-52.91405000
189.54277039,-56.62973000
189.59045410,-58.99833000
189.63813782,-57.44231000
189.68582153,-56.97701000
189.73350525,-52.95031000
189.78118896,-52.54163000
189.82887268,-53.60080000
189.87655640,-52.38522000
189.92424011,-51.48937000
189.97192383,-53.12706000
190.01960754,-64.49503000
190.06729126,-65.30412000
190.11497498,-68.03451000
190.16265869,-64.42599000
190.21034241,-60.90168000
190.25802612,-64.69585000
190.30570984,-56.34998000
190.35339355,-55.26070000
190.40107727,-59.34234000
190.44876099,-65.11848000
190.49644470,-58.60695000
190.54412842,-61.83381000
190.59181213,-59.94899000
190.63949585,-56.07811000
190.68717957,-59.73058000
190.73486328,-60.68092000
190.78254700,-53.56224000
190.83023071,-53.08415000
190.87791443,-54.34007000
190.92559814,-56.21798000
190.97328186,-66.37926000
191.02096558,-62.59674000
191.06864929,-58.51385000
191.11633301,-60.06273000
191.16401672,-65.20914000
191.21170044,-74.89832000
191.25938416,-71.84987000
191.30706787,-77.10773000
191.35475159,-64.03865000
191.40243530,-57.00573000
191.45011902,-53.83086000
191.49780273,-55.99171000
191.54548645,-71.33514000
191.59317017,-64.04269000
191.64085388,-62.33988000
191.68853760,-66.06389000
191.73622131,-54.86143000
191.78390503,-50.12843000
191.83158875,-50.33244000
191.87927246,-51.23811000
191.92695618,-52.55386000
191.97463989,-54.10614000
192.02232361,-54.82042000
192.07000732,-53.64096000
192.11769104,-51.25349000
192.16537476,-52.70462000
192.21305847,-55.26270000
192.26074219,-57.27419000
192.30842590,-53.59608000
192.35610962,-53.42584000
192.40379333,-59.95687000
192.45147705,-61.93243000
192.49916077,-54.96540000
192.54684448,-63.03251000
192.59452820,-61.21249000
192.64221191,-57.30515000
192.68989563,-62.02505000
192.73757935,-81.07359000
192.78526306,-77.94370000
192.83294678,-57.46514000
192.88063049,-54.64332000
192.92831421,-62.14153000
192.97599792,-60.51535000
193.02368164,-56.98370000
193.07136536,-54.62753000
193.11904907,-51.86412000
193.16673279,-50.31541000
193.21441650,-52.54203000
193.26210022,-56.79344000
193.30978394,-55.54501000
193.35746765,-52.51886000
193.40515137,-51.21592000
193.45283508,-54.37381000
193.50051880,-64.09851000
193.54820251,-55.41939000
193.59588623,-66.65120000
193.64356995,-55.55340000
193.69125366,-56.11523000
193.73893738,-58.38013000
193.78662109,-53.18490000
193.83430481,-60.30587000
193.88198853,-54.47678000
193.92967224,-52.46473000
193.97735596,-59.30855000
194.02503967,-59.80560000
194.07272339,-55.70783000
194.12040710,-56.03230000
194.16809082,-58.01551000
194.21577454,-58.35633000
194.26345825,-57.09552000
194.31114197,-58.40904000
194.35882568,-59.14719000
194.40650940,-57.96484000
194.45419312,-52.00085000
194.50187683,-51.93964000
194.54956055,-56.30528000
194.59724426,-55.67336000
194.64492798,-50.71999000
194.69261169,-52.06268000
194.74029541,-61.38470000
194.78797913,-65.75015000
194.83566284,-55.09269000
194.88334656,-55.09533000
194.93103027,-61.79924000
194.97871399,-63.03125000
195.02639771,-60.49294000
195.07408142,-56.91068000
195.12176514,-56.44170000
195.16944885,-53.69247000
195.21713257,-57.94345000
195.26481628,-59.71685000
