Frequency,Channel B
(kHz),(dBu)

0.00000000,-58.98079000
0.09536743,-74.47809000
0.19073486,-65.43719000
0.28610229,-67.54008000
0.38146973,-65.00768000
0.47683716,-65.73389000
0.57220459,-65.63200000
0.66757202,-64.77594000
0.76293945,-64.93703000
0.85830688,-62.09177000
0.95367432,-60.88687000
1.04904175,-61.97367000
1.14440918,-62.43616000
1.23977661,-60.18110000
1.33514404,-60.22315000
1.43051147,-59.86692000
1.52587891,-62.00306000
1.62124634,-63.78548000
1.71661377,-59.99775000
1.81198120,-61.15325000
1.90734863,-64.00451000
2.00271606,-66.11168000
2.09808350,-61.74934000
2.19345093,-65.65012000
2.28881836,-60.67362000
2.38418579,-76.84584000
2.47955322,-60.34827000
2.57492065,-68.57359000
2.67028809,-55.77737000
2.76565552,-50.51706000
2.86102295,-28.86955000
2.95639038,-15.63765000
3.05175781,-11.06947000
3.14712524,-13.99783000
3.24249268,-25.26793000
3.33786011,-45.99934000
3.43322754,-54.87726000
3.52859497,-61.66555000
3.62396240,-65.06081000
3.71932983,-59.71766000
3.81469727,-70.20609000
3.91006470,-58.10220000
4.00543213,-67.56064000
4.10079956,-54.93647000
4.19616699,-56.46055000
4.29153442,-52.42894000
4.38690186,-46.12261000
4.48226929,-32.34433000
4.57763672,-17.15124000
4.67300415,-9.56367700
4.76837158,-9.14785300
4.86373901,-15.86669000
4.95910645,-30.34752000
5.05447388,-44.68504000
5.14984131,-53.31331000
5.24520874,-55.17163000
5.34057617,-59.20144000
5.43594360,-61.67734000
5.53131104,-62.04357000
5.62667847,-72.02607000
5.72204590,-62.52957000
5.81741333,-80.02700000
5.91278076,-64.01847000
6.00814819,-61.59059000
6.10351563,-63.70385000
6.19888306,-73.64747000
6.29425049,-63.07651000
6.38961792,-62.44604000
6.48498535,-63.81775000
6.58035278,-69.04401000
6.67572021,-75.02140000
6.77108765,-67.25755000
6.86645508,-61.85804000
6.96182251,-63.84336000
7.05718994,-69.14866000
7.15255737,-61.80279000
7.24792480,-58.89804000
7.34329224,-60.01321000
7.43865967,-71.78297000
7.53402710,-67.50876000
7.62939453,-63.92958000
7.72476196,-68.23512000
7.82012939,-74.72255000
7.91549683,-65.89801000
8.01086426,-64.57842000
8.10623169,-65.03551000
8.20159912,-73.77784000
8.29696655,-74.95195000
8.39233398,-65.33257000
8.48770142,-65.65170000
8.58306885,-74.51147000
8.67843628,-71.79496000
8.77380371,-67.67449000
8.86917114,-66.09092000
8.96453857,-69.28028000
9.05990601,-63.70964000
9.15527344,-62.88372000
9.25064087,-70.94566000
9.34600830,-67.75529000
9.44137573,-62.70127000
9.53674316,-66.32596000
9.63211060,-69.18198000
9.72747803,-66.34821000
9.82284546,-67.03780000
9.91821289,-67.62059000
10.01358032,-66.72125000
10.10894775,-62.58926000
10.20431519,-62.47571000
10.29968262,-63.62976000
10.39505005,-62.01308000
10.49041748,-59.31543000
10.58578491,-60.11746000
10.68115234,-63.80232000
10.77651978,-65.87074000
10.87188721,-63.03442000
10.96725464,-61.63760000
11.06262207,-64.83926000
11.15798950,-70.60006000
11.25335693,-86.74615000
11.34872437,-75.89429000
11.44409180,-70.00301000
11.53945923,-69.43916000
11.63482666,-73.69864000
11.73019409,-71.82067000
11.82556152,-73.09735000
11.92092896,-69.33882000
12.01629639,-64.36955000
12.11166382,-60.94267000
12.20703125,-60.05708000
12.30239868,-62.21212000
12.39776611,-66.83572000
12.49313354,-70.18101000
12.58850098,-65.00453000
12.68386841,-62.92939000
12.77923584,-58.98770000
12.87460327,-57.65059000
12.96997070,-60.86055000
13.06533813,-66.83556000
13.16070557,-62.26128000
13.25607300,-59.57687000
13.35144043,-59.90656000
13.44680786,-61.66882000
13.54217529,-61.53700000
13.63754272,-63.27888000
13.73291016,-68.63300000
13.82827759,-70.37233000
13.92364502,-65.79472000
14.01901245,-67.61870000
14.11437988,-69.75183000
14.20974731,-71.77711000
14.30511475,-65.46699000
14.40048218,-73.01555000
14.49584961,-72.43913000
14.59121704,-65.06908000
14.68658447,-61.89630000
14.78195190,-61.22630000
14.87731934,-64.20780000
14.97268677,-64.44252000
15.06805420,-61.86728000
15.16342163,-62.71310000
15.25878906,-69.35149000
15.35415649,-63.85952000
15.44952393,-62.10531000
15.54489136,-66.52877000
15.64025879,-68.99030000
15.73562622,-76.93784000
15.83099365,-81.60836000
15.92636108,-73.99646000
16.02172852,-79.01830000
16.11709595,-72.93174000
16.21246338,-70.43313000
16.30783081,-67.31296000
16.40319824,-64.87947000
16.49856567,-64.87270000
16.59393311,-79.89973000
16.68930054,-61.61477000
16.78466797,-59.00700000
16.88003540,-63.70308000
16.97540283,-73.45610000
17.07077026,-85.79784000
17.16613770,-70.31480000
17.26150513,-67.77290000
17.35687256,-63.45825000
17.45223999,-61.08620000
17.54760742,-60.03922000
17.64297485,-60.80761000
17.73834229,-66.33109000
17.83370972,-76.69693000
17.92907715,-74.15492000
18.02444458,-64.23119000
18.11981201,-60.37483000
18.21517944,-65.61464000
18.31054688,-67.18285000
18.40591431,-60.31100000
18.50128174,-62.51263000
18.59664917,-68.63068000
18.69201660,-75.89738000
18.78738403,-62.80715000
18.88275146,-58.34872000
18.97811890,-63.35366000
19.07348633,-94.15582000
19.16885376,-70.20470000
19.26422119,-64.39408000
19.35958862,-64.37157000
19.45495605,-66.18591000
19.55032349,-64.42519000
19.64569092,-64.87004000
19.74105835,-66.67965000
19.83642578,-61.40192000
19.93179321,-62.64273000
20.02716064,-65.67902000
20.12252808,-67.57875000
20.21789551,-75.93011000
20.31326294,-62.91973000
20.40863037,-61.03413000
20.50399780,-59.98683000
20.59936523,-62.36128000
20.69473267,-69.51201000
20.79010010,-70.29045000
20.88546753,-71.03481000
20.98083496,-74.92513000
21.07620239,-70.26177000
21.17156982,-64.43262000
21.26693726,-65.28513000
21.36230469,-66.74320000
21.45767212,-68.38548000
21.55303955,-74.25160000
21.64840698,-75.08568000
21.74377441,-66.10468000
21.83914185,-68.59087000
21.93450928,-73.52507000
22.02987671,-71.94289000
22.12524414,-62.47096000
22.22061157,-62.68202000
22.31597900,-73.12438000
22.41134644,-63.10683000
22.50671387,-60.67713000
22.60208130,-66.56397000
22.69744873,-64.33186000
22.79281616,-63.32930000
22.88818359,-62.75063000
22.98355103,-60.59404000
23.07891846,-62.36251000
23.17428589,-62.28636000
23.26965332,-60.54179000
23.36502075,-59.01480000
23.46038818,-58.39215000
23.55575562,-59.05653000
23.65112305,-60.84417000
23.74649048,-61.00264000
23.84185791,-60.57204000
23.93722534,-62.10475000
24.03259277,-68.52469000
24.12796021,-68.58107000
24.22332764,-62.39212000
24.31869507,-62.13879000
24.41406250,-68.27216000
24.50942993,-71.62892000
24.60479736,-78.16815000
24.70016479,-75.75738000
24.79553223,-72.96013000
24.89089966,-63.58782000
24.98626709,-62.70282000
25.08163452,-66.66601000
25.17700195,-69.96819000
25.27236938,-69.96795000
25.36773682,-69.50191000
25.46310425,-65.34629000
25.55847168,-69.75363000
25.65383911,-68.31046000
25.74920654,-62.18046000
25.84457397,-65.08388000
25.93994141,-72.13034000
26.03530884,-65.79202000
26.13067627,-60.78493000
26.22604370,-60.75010000
26.32141113,-66.71686000
26.41677856,-71.61142000
26.51214600,-66.43902000
26.60751343,-89.83013000
26.70288086,-63.94811000
26.79824829,-60.27150000
26.89361572,-61.35007000
26.98898315,-66.99790000
27.08435059,-71.21142000
27.17971802,-77.59709000
27.27508545,-76.50907000
27.37045288,-71.47594000
27.46582031,-70.27670000
27.56118774,-66.05714000
27.65655518,-66.63336000
27.75192261,-67.56703000
27.84729004,-63.82624000
27.94265747,-63.99318000
28.03802490,-63.55988000
28.13339233,-62.79985000
28.22875977,-67.01978000
28.32412720,-75.42198000
28.41949463,-64.70909000
28.51486206,-69.45580000
28.61022949,-76.12442000
28.70559692,-65.80695000
28.80096436,-61.69490000
28.89633179,-65.14785000
28.99169922,-74.89220000
29.08706665,-70.09230000
29.18243408,-72.63111000
29.27780151,-62.58419000
29.37316895,-65.15484000
29.46853638,-67.61012000
29.56390381,-73.72903000
29.65927124,-78.43338000
29.75463867,-69.18050000
29.85000610,-63.84796000
29.94537354,-63.06693000
30.04074097,-64.77338000
30.13610840,-75.41144000
30.23147583,-70.50334000
30.32684326,-76.47897000
30.42221069,-69.63905000
30.51757813,-72.01276000
30.61294556,-72.92559000
30.70831299,-66.26146000
30.80368042,-66.34590000
30.89904785,-75.69850000
30.99441528,-71.58240000
31.08978271,-76.42026000
31.18515015,-71.43947000
31.28051758,-69.89388000
31.37588501,-73.82587000
31.47125244,-72.83726000
31.56661987,-67.87001000
31.66198730,-62.38864000
31.75735474,-66.45578000
31.85272217,-63.25581000
31.94808960,-62.85146000
32.04345703,-68.19618000
32.13882446,-76.74584000
32.23419189,-67.82508000
32.32955933,-66.27541000
32.42492676,-78.88618000
32.52029419,-64.54963000
32.61566162,-63.82194000
32.71102905,-69.09209000
32.80639648,-76.74487000
32.90176392,-79.67834000
32.99713135,-79.32258000
33.09249878,-78.22768000
33.18786621,-66.27555000
33.28323364,-61.84650000
33.37860107,-61.18098000
33.47396851,-63.10202000
33.56933594,-65.13431000
33.66470337,-64.31672000
33.76007080,-64.12633000
33.85543823,-65.04343000
33.95080566,-67.95348000
34.04617310,-68.36200000
34.14154053,-63.07773000
34.23690796,-63.09059000
34.33227539,-65.54458000
34.42764282,-63.85685000
34.52301025,-61.94909000
34.61837769,-68.53979000
34.71374512,-80.75328000
34.80911255,-81.41254000
34.90447998,-72.29789000
34.99984741,-82.83313000
35.09521484,-69.59046000
35.19058228,-66.43706000
35.28594971,-60.04491000
35.38131714,-59.18667000
35.47668457,-65.61004000
35.57205200,-72.50789000
35.66741943,-71.65965000
35.76278687,-80.66302000
35.85815430,-75.88440000
35.95352173,-77.13310000
36.04888916,-74.88387000
36.14425659,-68.74368000
36.23962402,-68.18829000
36.33499146,-65.45296000
36.43035889,-63.44231000
36.52572632,-66.61707000
36.62109375,-78.71478000
36.71646118,-71.87261000
36.81182861,-64.72468000
36.90719604,-64.07701000
37.00256348,-65.73703000
37.09793091,-67.69241000
37.19329834,-75.31654000
37.28866577,-74.24375000
37.38403320,-73.37766000
37.47940063,-75.82417000
37.57476807,-66.11549000
37.67013550,-70.71227000
37.76550293,-62.88175000
37.86087036,-59.96999000
37.95623779,-64.55069000
38.05160522,-72.63744000
38.14697266,-64.57055000
38.24234009,-67.63309000
38.33770752,-69.50737000
38.43307495,-64.44638000
38.52844238,-63.14103000
38.62380981,-65.13198000
38.71917725,-65.61549000
38.81454468,-66.03120000
38.90991211,-74.22752000
39.00527954,-69.82462000
39.10064697,-69.82710000
39.19601440,-65.12479000
39.29138184,-62.65533000
39.38674927,-64.86044000
39.48211670,-73.05701000
39.57748413,-71.52451000
39.67285156,-64.98296000
39.76821899,-63.99517000
39.86358643,-62.68027000
39.95895386,-63.05581000
40.05432129,-67.94476000
40.14968872,-71.97458000
40.24505615,-64.79546000
40.34042358,-64.66158000
40.43579102,-74.37019000
40.53115845,-70.16074000
40.62652588,-80.11941000
40.72189331,-70.28759000
40.81726074,-65.55598000
40.91262817,-64.81002000
41.00799561,-64.30793000
41.10336304,-63.55103000
41.19873047,-63.76856000
41.29409790,-64.85915000
41.38946533,-65.03243000
41.48483276,-62.08004000
41.58020020,-66.24870000
41.67556763,-70.00966000
41.77093506,-70.94262000
41.86630249,-67.71725000
41.96166992,-65.92982000
42.05703735,-66.36631000
42.15240479,-67.00382000
42.24777222,-68.70675000
42.34313965,-70.51187000
42.43850708,-68.51260000
42.53387451,-64.62089000
42.62924194,-61.51970000
42.72460938,-62.20286000
42.81997681,-62.82341000
42.91534424,-66.11785000
43.01071167,-81.16294000
43.10607910,-71.33714000
43.20144653,-63.29122000
43.29681396,-63.53690000
43.39218140,-72.65438000
43.48754883,-72.65121000
43.58291626,-64.97054000
43.67828369,-63.88254000
43.77365112,-70.94508000
43.86901855,-64.05069000
43.96438599,-61.30457000
44.05975342,-61.26133000
44.15512085,-62.63235000
44.25048828,-66.08673000
44.34585571,-72.33442000
44.44122314,-68.20504000
44.53659058,-69.19706000
44.63195801,-65.18402000
44.72732544,-63.56172000
44.82269287,-64.19031000
44.91806030,-68.59181000
45.01342773,-69.52727000
45.10879517,-63.23130000
45.20416260,-64.58901000
45.29953003,-69.45579000
45.39489746,-67.95773000
45.49026489,-66.22890000
45.58563232,-70.46510000
45.68099976,-70.56410000
45.77636719,-75.22675000
45.87173462,-74.31026000
45.96710205,-68.07292000
46.06246948,-64.08813000
46.15783691,-59.89226000
46.25320435,-59.33958000
46.34857178,-62.70849000
46.44393921,-68.87376000
46.53930664,-61.89758000
46.63467407,-61.21080000
46.73004150,-61.10322000
46.82540894,-60.69942000
46.92077637,-63.58025000
47.01614380,-67.66125000
47.11151123,-68.93649000
47.20687866,-74.73466000
47.30224609,-66.71737000
47.39761353,-67.25747000
47.49298096,-65.61100000
47.58834839,-62.46010000
47.68371582,-61.64160000
47.77908325,-63.64651000
47.87445068,-83.52766000
47.96981812,-67.59081000
48.06518555,-65.87556000
48.16055298,-64.84595000
48.25592041,-64.96245000
48.35128784,-71.50629000
48.44665527,-73.50088000
48.54202271,-75.54253000
48.63739014,-73.93475000
48.73275757,-67.26692000
48.82812500,-61.95591000
48.92349243,-61.89276000
49.01885986,-62.37820000
49.11422729,-62.66278000
49.20959473,-63.23574000
49.30496216,-65.47625000
49.40032959,-72.62317000
49.49569702,-64.88931000
49.59106445,-64.35060000
49.68643188,-62.29446000
49.78179932,-66.13416000
49.87716675,-67.07131000
49.97253418,-72.63045000
50.06790161,-71.03545000
50.16326904,-70.19823000
50.25863647,-88.85093000
50.35400391,-74.49223000
50.44937134,-71.77724000
50.54473877,-63.40021000
50.64010620,-61.80818000
50.73547363,-66.97424000
50.83084106,-68.14528000
50.92620850,-62.86330000
51.02157593,-61.16453000
51.11694336,-61.64326000
51.21231079,-64.12936000
51.30767822,-66.27161000
51.40304565,-68.89696000
51.49841309,-69.25813000
51.59378052,-68.28261000
51.68914795,-79.87537000
51.78451538,-72.11951000
51.87988281,-68.03033000
51.97525024,-67.74286000
52.07061768,-69.95924000
52.16598511,-69.22437000
52.26135254,-64.16557000
52.35671997,-63.75871000
52.45208740,-65.84872000
52.54745483,-70.53011000
52.64282227,-65.21106000
52.73818970,-75.62389000
52.83355713,-63.36008000
52.92892456,-61.36269000
53.02429199,-64.74481000
53.11965942,-67.46019000
53.21502686,-72.70380000
53.31039429,-75.51115000
53.40576172,-72.71619000
53.50112915,-65.36314000
53.59649658,-65.45567000
53.69186401,-67.95592000
53.78723145,-71.52751000
53.88259888,-71.19081000
53.97796631,-61.47051000
54.07333374,-60.05398000
54.16870117,-65.91026000
54.26406860,-75.17575000
54.35943604,-64.64691000
54.45480347,-64.15070000
54.55017090,-75.93977000
54.64553833,-65.38449000
54.74090576,-62.14941000
54.83627319,-72.82829000
54.93164063,-68.59184000
55.02700806,-67.28259000
55.12237549,-66.46508000
55.21774292,-65.80293000
55.31311035,-72.65037000
55.40847778,-75.09090000
55.50384521,-70.40542000
55.59921265,-77.59949000
55.69458008,-70.38565000
55.78994751,-74.69361000
55.88531494,-71.59111000
55.98068237,-70.79092000
56.07604980,-68.45752000
56.17141724,-66.74497000
56.26678467,-64.81738000
56.36215210,-66.58102000
56.45751953,-61.54585000
56.55288696,-61.87019000
56.64825439,-67.06956000
56.74362183,-67.30029000
56.83898926,-66.70207000
56.93435669,-70.49855000
57.02972412,-72.28952000
57.12509155,-72.85155000
57.22045898,-68.10904000
57.31582642,-65.30760000
57.41119385,-66.34270000
57.50656128,-76.26214000
57.60192871,-70.50986000
57.69729614,-69.03464000
57.79266357,-73.67624000
57.88803101,-77.94032000
57.98339844,-68.68964000
58.07876587,-72.52951000
58.17413330,-77.00893000
58.26950073,-66.57232000
58.36486816,-63.54359000
58.46023560,-63.29617000
58.55560303,-68.88567000
58.65097046,-71.63466000
58.74633789,-68.44334000
58.84170532,-72.67627000
58.93707275,-70.51141000
59.03244019,-68.96272000
59.12780762,-71.18308000
59.22317505,-73.47997000
59.31854248,-68.94878000
59.41390991,-77.75346000
59.50927734,-68.88670000
59.60464478,-68.51505000
59.70001221,-72.46651000
59.79537964,-67.16284000
59.89074707,-60.57010000
59.98611450,-58.10141000
60.08148193,-59.85477000
60.17684937,-64.64963000
60.27221680,-67.54657000
60.36758423,-75.08829000
60.46295166,-69.68012000
60.55831909,-67.36256000
60.65368652,-75.75740000
60.74905396,-76.63400000
60.84442139,-76.28335000
60.93978882,-74.73237000
61.03515625,-66.98295000
61.13052368,-65.11125000
61.22589111,-66.05766000
61.32125854,-68.95440000
61.41662598,-76.27469000
61.51199341,-72.12601000
61.60736084,-66.13814000
61.70272827,-64.72028000
61.79809570,-67.09556000
61.89346313,-68.05640000
61.98883057,-65.10889000
62.08419800,-70.57657000
62.17956543,-65.38631000
62.27493286,-65.13473000
62.37030029,-70.62657000
62.46566772,-69.02884000
62.56103516,-69.84871000
62.65640259,-72.87745000
62.75177002,-63.98302000
62.84713745,-62.27848000
62.94250488,-68.13168000
63.03787231,-62.81885000
63.13323975,-59.61538000
63.22860718,-60.02638000
63.32397461,-62.79885000
63.41934204,-64.23782000
63.51470947,-62.39830000
63.61007690,-66.17315000
63.70544434,-70.53075000
63.80081177,-65.65135000
63.89617920,-65.79398000
63.99154663,-70.94856000
64.08691406,-71.60603000
64.18228149,-70.03968000
64.27764893,-71.99490000
64.37301636,-67.58318000
64.46838379,-65.39941000
64.56375122,-65.45175000
64.65911865,-70.68784000
64.75448608,-75.39328000
64.84985352,-67.21322000
64.94522095,-64.90152000
65.04058838,-70.38839000
65.13595581,-74.74385000
65.23132324,-81.86026000
65.32669067,-72.65037000
65.42205811,-67.49243000
65.51742554,-64.43839000
65.61279297,-63.70621000
65.70816040,-66.87307000
65.80352783,-76.00391000
65.89889526,-65.81440000
65.99426270,-64.79652000
66.08963013,-67.13542000
66.18499756,-62.33866000
66.28036499,-63.07145000
66.37573242,-71.07253000
66.47109985,-69.54852000
66.56646729,-66.88586000
66.66183472,-66.52428000
66.75720215,-68.58716000
66.85256958,-71.01180000
66.94793701,-72.09881000
67.04330444,-76.79261000
67.13867188,-71.41626000
67.23403931,-67.94984000
67.32940674,-66.41160000
67.42477417,-64.13810000
67.52014160,-64.56043000
67.61550903,-61.56372000
67.71087646,-59.74819000
67.80624390,-62.29317000
67.90161133,-67.90778000
67.99697876,-76.31226000
68.09234619,-67.17920000
68.18771362,-65.29504000
68.28308105,-70.24628000
68.37844849,-74.26452000
68.47381592,-67.24623000
68.56918335,-65.58093000
68.66455078,-72.28885000
68.75991821,-70.00642000
68.85528564,-70.40131000
68.95065308,-75.55734000
69.04602051,-66.98210000
69.14138794,-64.76216000
69.23675537,-69.78954000
69.33212280,-73.99000000
69.42749023,-73.72298000
69.52285767,-71.59181000
69.61822510,-66.91267000
69.71359253,-66.48211000
69.80895996,-76.47954000
69.90432739,-65.05218000
69.99969482,-64.60402000
70.09506226,-69.37840000
70.19042969,-72.24924000
70.28579712,-76.60566000
70.38116455,-79.00803000
70.47653198,-70.13695000
70.57189941,-67.13244000
70.66726685,-66.58630000
70.76263428,-66.91661000
70.85800171,-67.54381000
70.95336914,-67.07961000
71.04873657,-70.72481000
71.14410400,-75.89275000
71.23947144,-67.79364000
71.33483887,-69.35807000
71.43020630,-72.61166000
71.52557373,-77.21938000
71.62094116,-73.20589000
71.71630859,-72.19145000
71.81167603,-64.22433000
71.90704346,-62.84246000
72.00241089,-63.41748000
72.09777832,-67.63754000
72.19314575,-73.63491000
72.28851318,-71.85764000
72.38388062,-72.00002000
72.47924805,-72.05855000
72.57461548,-75.81620000
72.66998291,-68.45139000
72.76535034,-64.99940000
72.86071777,-64.15623000
72.95608521,-63.66121000
73.05145264,-63.31365000
73.14682007,-66.40341000
73.24218750,-77.33886000
73.33755493,-76.58920000
73.43292236,-73.31386000
73.52828979,-74.66084000
73.62365723,-77.79263000
73.71902466,-73.09849000
73.81439209,-68.20480000
73.90975952,-73.24170000
74.00512695,-68.64178000
74.10049438,-67.51668000
74.19586182,-64.42825000
74.29122925,-65.22924000
74.38659668,-66.68713000
74.48196411,-70.86311000
74.57733154,-77.73775000
74.67269897,-65.98058000
74.76806641,-67.50018000
74.86343384,-74.41781000
74.95880127,-68.98279000
75.05416870,-65.26526000
75.14953613,-67.26910000
75.24490356,-72.43624000
75.34027100,-71.38380000
75.43563843,-71.62329000
75.53100586,-67.03146000
75.62637329,-63.46726000
75.72174072,-64.13161000
75.81710815,-67.70772000
75.91247559,-67.96172000
76.00784302,-70.61279000
76.10321045,-68.07623000
76.19857788,-66.90093000
76.29394531,-67.30269000
76.38931274,-74.30328000
76.48468018,-66.84238000
76.58004761,-63.95662000
76.67541504,-68.30016000
76.77078247,-76.25364000
76.86614990,-70.33904000
76.96151733,-66.54939000
77.05688477,-67.46365000
77.15225220,-64.32278000
77.24761963,-61.04655000
77.34298706,-61.71112000
77.43835449,-67.20498000
77.53372192,-66.07692000
77.62908936,-70.62351000
77.72445679,-71.42989000
77.81982422,-68.30751000
77.91519165,-67.42462000
78.01055908,-67.30141000
78.10592651,-70.94321000
78.20129395,-96.22685000
78.29666138,-65.54042000
78.39202881,-60.20638000
78.48739624,-59.34749000
78.58276367,-63.59335000
78.67813110,-76.65772000
78.77349854,-77.02147000
78.86886597,-74.67836000
78.96423340,-68.44427000
79.05960083,-67.33775000
79.15496826,-65.81332000
79.25033569,-64.89658000
79.34570313,-68.61396000
79.44107056,-74.07466000
79.53643799,-78.19493000
79.63180542,-70.16972000
79.72717285,-66.40273000
79.82254028,-67.06413000
79.91790771,-63.11341000
80.01327515,-63.11506000
80.10864258,-74.20294000
80.20401001,-68.94599000
80.29937744,-65.76616000
80.39474487,-65.92197000
80.49011230,-68.57259000
80.58547974,-68.79932000
80.68084717,-69.38408000
80.77621460,-74.90450000
80.87158203,-78.71785000
80.96694946,-86.72707000
81.06231689,-81.36221000
81.15768433,-80.23737000
81.25305176,-76.50016000
81.34841919,-71.96296000
81.44378662,-63.79598000
81.53915405,-66.44872000
81.63452148,-84.82938000
81.72988892,-70.39307000
81.82525635,-66.59659000
81.92062378,-63.20890000
82.01599121,-64.23380000
82.11135864,-70.89828000
82.20672607,-78.73373000
82.30209351,-69.16177000
82.39746094,-70.76492000
82.49282837,-73.91652000
82.58819580,-68.87796000
82.68356323,-68.46839000
82.77893066,-71.79285000
82.87429810,-65.85526000
82.96966553,-62.24474000
83.06503296,-60.35534000
83.16040039,-63.61279000
83.25576782,-68.33395000
83.35113525,-67.71466000
83.44650269,-76.20223000
83.54187012,-73.13719000
83.63723755,-68.57624000
83.73260498,-66.26828000
83.82797241,-69.76572000
83.92333984,-76.28026000
84.01870728,-74.69868000
84.11407471,-77.47341000
84.20944214,-72.28547000
84.30480957,-66.95393000
84.40017700,-67.89066000
84.49554443,-72.53460000
84.59091187,-76.35677000
84.68627930,-69.59129000
84.78164673,-68.98259000
84.87701416,-75.52583000
84.97238159,-70.13267000
85.06774902,-66.93646000
85.16311646,-69.38453000
85.25848389,-70.93896000
85.35385132,-67.62041000
85.44921875,-64.08218000
85.54458618,-64.82379000
85.63995361,-69.61332000
85.73532104,-68.08720000
85.83068848,-68.40043000
85.92605591,-68.46526000
86.02142334,-74.11537000
86.11679077,-70.20711000
86.21215820,-68.95370000
86.30752563,-71.46223000
86.40289307,-68.24068000
86.49826050,-67.38818000
86.59362793,-68.62450000
86.68899536,-68.28582000
86.78436279,-68.26091000
86.87973022,-70.34717000
86.97509766,-70.71198000
87.07046509,-72.76412000
87.16583252,-76.89090000
87.26119995,-75.52884000
87.35656738,-69.67044000
87.45193481,-68.90887000
87.54730225,-68.27551000
87.64266968,-67.07782000
87.73803711,-69.57082000
87.83340454,-71.95853000
87.92877197,-67.17454000
88.02413940,-62.85614000
88.11950684,-63.60173000
88.21487427,-68.76476000
88.31024170,-70.94405000
88.40560913,-69.47625000
88.50097656,-66.84434000
88.59634399,-64.28551000
88.69171143,-70.21556000
88.78707886,-79.07084000
88.88244629,-71.77634000
88.97781372,-66.90063000
89.07318115,-63.20643000
89.16854858,-62.20855000
89.26391602,-63.04285000
89.35928345,-72.34804000
89.45465088,-72.83022000
89.55001831,-72.23230000
89.64538574,-88.20527000
89.74075317,-76.24404000
89.83612061,-72.86562000
89.93148804,-80.42213000
90.02685547,-71.62473000
90.12222290,-63.80230000
90.21759033,-64.34329000
90.31295776,-75.00085000
90.40832520,-76.51887000
90.50369263,-73.15077000
90.59906006,-70.37460000
90.69442749,-82.60979000
90.78979492,-72.55682000
90.88516235,-68.51093000
90.98052979,-66.10365000
91.07589722,-79.50021000
91.17126465,-64.98138000
91.26663208,-63.48574000
91.36199951,-69.14875000
91.45736694,-77.40418000
91.55273438,-76.24618000
91.64810181,-70.96512000
91.74346924,-73.32370000
91.83883667,-74.37569000
91.93420410,-76.90445000
92.02957153,-69.35617000
92.12493896,-70.81393000
92.22030640,-78.99960000
92.31567383,-69.56582000
92.41104126,-66.29410000
92.50640869,-67.04868000
92.60177612,-69.07618000
92.69714355,-76.64059000
92.79251099,-67.86625000
92.88787842,-65.92191000
92.98324585,-69.78021000
93.07861328,-71.33894000
93.17398071,-70.52444000
93.26934814,-73.09708000
93.36471558,-81.27734000
93.46008301,-73.68321000
93.55545044,-72.10604000
93.65081787,-83.34624000
93.74618530,-83.11866000
93.84155273,-75.01627000
93.93692017,-66.81859000
94.03228760,-66.99895000
94.12765503,-67.94723000
94.22302246,-69.45463000
94.31838989,-74.91138000
94.41375732,-67.34549000
94.50912476,-68.56664000
94.60449219,-68.22272000
94.69985962,-65.10545000
94.79522705,-64.93077000
94.89059448,-67.17465000
94.98596191,-67.19524000
95.08132935,-64.83817000
95.17669678,-63.12944000
95.27206421,-66.63775000
95.36743164,-71.09709000
95.46279907,-67.77145000
95.55816650,-63.31200000
95.65353394,-63.89633000
95.74890137,-64.07150000
95.84426880,-63.70947000
95.93963623,-65.81340000
96.03500366,-68.54921000
96.13037109,-70.56240000
96.22573853,-70.20464000
96.32110596,-68.70576000
96.41647339,-65.50452000
96.51184082,-63.25233000
96.60720825,-62.66956000
96.70257568,-64.87975000
96.79794312,-66.28998000
96.89331055,-62.20454000
96.98867798,-60.28059000
97.08404541,-64.21387000
97.17941284,-73.69595000
97.27478027,-76.17989000
97.37014771,-67.87955000
97.46551514,-63.75039000
97.56088257,-62.33109000
97.65625000,-63.62165000
97.75161743,-67.73313000
97.84698486,-82.49696000
97.94235229,-67.97426000
98.03771973,-68.68585000
98.13308716,-67.18078000
98.22845459,-69.88148000
98.32382202,-67.57057000
98.41918945,-61.92114000
98.51455688,-63.47522000
98.60992432,-68.60439000
98.70529175,-72.97379000
98.80065918,-72.88244000
98.89602661,-72.68163000
98.99139404,-71.93514000
99.08676147,-72.09626000
99.18212891,-65.64054000
99.27749634,-64.46231000
99.37286377,-65.23399000
99.46823120,-66.11876000
99.56359863,-68.98091000
99.65896606,-68.24616000
99.75433350,-65.98793000
99.84970093,-62.47564000
99.94506836,-60.95462000
100.04043579,-61.59840000
100.13580322,-64.49162000
100.23117065,-70.92265000
100.32653809,-82.28505000
100.42190552,-75.00731000
100.51727295,-69.28874000
100.61264038,-70.19937000
100.70800781,-72.35248000
100.80337524,-80.23830000
100.89874268,-74.22408000
100.99411011,-69.84647000
101.08947754,-73.23334000
101.18484497,-75.67690000
101.28021240,-71.73775000
101.37557983,-77.95415000
101.47094727,-65.68345000
101.56631470,-63.52271000
101.66168213,-67.81547000
101.75704956,-65.08949000
101.85241699,-60.79946000
101.94778442,-60.22135000
102.04315186,-64.39744000
102.13851929,-69.34718000
102.23388672,-64.64434000
102.32925415,-60.76170000
102.42462158,-60.72728000
102.51998901,-63.10301000
102.61535645,-69.65016000
102.71072388,-76.73766000
102.80609131,-68.26453000
102.90145874,-66.16058000
102.99682617,-77.53541000
103.09219360,-65.90830000
103.18756104,-63.81062000
103.28292847,-64.07444000
103.37829590,-65.55939000
103.47366333,-67.13961000
103.56903076,-69.10887000
103.66439819,-72.48100000
103.75976563,-69.79366000
103.85513306,-67.15646000
103.95050049,-80.56840000
104.04586792,-69.74193000
104.14123535,-69.16428000
104.23660278,-70.63486000
104.33197021,-71.64227000
104.42733765,-70.66582000
104.52270508,-69.44976000
104.61807251,-73.61436000
104.71343994,-69.07345000
104.80880737,-72.50928000
104.90417480,-69.70432000
104.99954224,-69.13046000
105.09490967,-65.91765000
105.19027710,-69.44080000
105.28564453,-70.26473000
105.38101196,-78.68133000
105.47637939,-70.19804000
105.57174683,-65.25008000
105.66711426,-61.97228000
105.76248169,-60.88441000
105.85784912,-65.45801000
105.95321655,-73.84353000
106.04858398,-67.80519000
106.14395142,-65.27859000
106.23931885,-69.07076000
106.33468628,-82.60102000
106.43005371,-67.53316000
106.52542114,-67.84055000
106.62078857,-71.22849000
106.71615601,-70.35157000
106.81152344,-64.02229000
106.90689087,-66.45956000
107.00225830,-65.48782000
107.09762573,-62.64267000
107.19299316,-64.25635000
107.28836060,-67.67844000
107.38372803,-77.16364000
107.47909546,-70.24358000
107.57446289,-69.18008000
107.66983032,-69.59673000
107.76519775,-70.81720000
107.86056519,-65.70261000
107.95593262,-64.40801000
108.05130005,-68.34888000
108.14666748,-69.77306000
108.24203491,-64.09847000
108.33740234,-63.53341000
108.43276978,-65.96069000
108.52813721,-70.64964000
108.62350464,-67.06346000
108.71887207,-61.24348000
108.81423950,-61.73992000
108.90960693,-68.17025000
109.00497437,-78.45013000
109.10034180,-78.34779000
109.19570923,-74.16799000
109.29107666,-69.46830000
109.38644409,-68.86980000
109.48181152,-73.92887000
109.57717896,-69.24343000
109.67254639,-66.34890000
109.76791382,-64.74142000
109.86328125,-65.69258000
109.95864868,-66.71747000
110.05401611,-69.02468000
110.14938354,-75.03326000
110.24475098,-83.40894000
110.34011841,-73.32458000
110.43548584,-68.95643000
110.53085327,-74.68779000
110.62622070,-73.49579000
110.72158813,-68.35525000
110.81695557,-71.52543000
110.91232300,-69.35702000
111.00769043,-65.11839000
111.10305786,-69.53349000
111.19842529,-69.22256000
111.29379272,-73.05543000
111.38916016,-77.21228000
111.48452759,-77.52360000
111.57989502,-75.67535000
111.67526245,-68.38119000
111.77062988,-69.39632000
111.86599731,-63.18394000
111.96136475,-62.32433000
112.05673218,-63.53718000
112.15209961,-65.42879000
112.24746704,-81.84472000
112.34283447,-67.91881000
112.43820190,-80.21921000
112.53356934,-68.09516000
112.62893677,-64.49663000
112.72430420,-63.47701000
112.81967163,-66.62788000
112.91503906,-85.01830000
113.01040649,-68.63068000
113.10577393,-71.77615000
113.20114136,-78.00905000
113.29650879,-74.70982000
113.39187622,-74.64549000
113.48724365,-69.85670000
113.58261108,-66.94028000
113.67797852,-64.50140000
113.77334595,-63.43448000
113.86871338,-67.77776000
113.96408081,-75.89783000
114.05944824,-67.96052000
114.15481567,-65.38952000
114.25018311,-62.58337000
114.34555054,-60.87130000
114.44091797,-62.33591000
114.53628540,-67.33714000
114.63165283,-69.92334000
114.72702026,-66.32822000
114.82238770,-65.64765000
114.91775513,-66.20261000
115.01312256,-67.40887000
115.10848999,-69.10680000
115.20385742,-73.51666000
115.29922485,-73.97493000
115.39459229,-69.23148000
115.48995972,-75.51275000
115.58532715,-72.38591000
115.68069458,-69.93739000
115.77606201,-64.99551000
115.87142944,-64.91771000
115.96679688,-71.45464000
116.06216431,-84.39839000
116.15753174,-70.97147000
116.25289917,-67.38478000
116.34826660,-67.27852000
116.44363403,-68.49881000
116.53900146,-71.80827000
116.63436890,-71.99346000
116.72973633,-74.75156000
116.82510376,-62.77691000
116.92047119,-62.41177000
117.01583862,-66.33262000
117.11120605,-65.59100000
117.20657349,-63.49352000
117.30194092,-66.25426000
117.39730835,-65.82389000
117.49267578,-64.77021000
117.58804321,-68.41750000
117.68341064,-75.03299000
117.77877808,-68.78237000
117.87414551,-63.48854000
117.96951294,-66.05183000
118.06488037,-75.04537000
118.16024780,-69.27070000
118.25561523,-68.96961000
118.35098267,-71.29662000
118.44635010,-73.08519000
118.54171753,-69.13004000
118.63708496,-67.77340000
118.73245239,-66.94141000
118.82781982,-68.83357000
118.92318726,-66.33772000
119.01855469,-61.35563000
119.11392212,-65.22408000
119.20928955,-76.91638000
119.30465698,-66.88248000
119.40002441,-68.02986000
119.49539185,-77.12145000
119.59075928,-82.92496000
119.68612671,-93.54608000
119.78149414,-76.92868000
119.87686157,-69.60039000
119.97222900,-71.64340000
120.06759644,-65.12194000
120.16296387,-64.31546000
120.25833130,-71.78601000
120.35369873,-62.24678000
120.44906616,-62.01545000
120.54443359,-75.82285000
120.63980103,-65.10583000
120.73516846,-63.33359000
120.83053589,-70.09674000
120.92590332,-70.58122000
121.02127075,-65.48291000
121.11663818,-67.67168000
121.21200562,-83.85621000
121.30737305,-72.05875000
121.40274048,-66.53554000
121.49810791,-63.83480000
121.59347534,-66.69775000
121.68884277,-76.82574000
121.78421021,-72.55878000
121.87957764,-66.56106000
121.97494507,-62.01448000
122.07031250,-62.67131000
122.16567993,-65.86826000
122.26104736,-67.83794000
122.35641479,-69.97974000
122.45178223,-78.79225000
122.54714966,-72.11926000
122.64251709,-69.95556000
122.73788452,-72.80760000
122.83325195,-64.53907000
122.92861938,-64.14754000
123.02398682,-65.86188000
123.11935425,-71.78091000
123.21472168,-77.33759000
123.31008911,-69.82725000
123.40545654,-71.09827000
123.50082397,-70.98514000
123.59619141,-70.19489000
123.69155884,-67.80339000
123.78692627,-63.70610000
123.88229370,-72.74558000
123.97766113,-65.18044000
124.07302856,-59.23840000
124.16839600,-57.96429000
124.26376343,-57.64630000
124.35913086,-58.82159000
124.45449829,-61.20926000
124.54986572,-64.49194000
124.64523315,-68.83543000
124.74060059,-64.68408000
124.83596802,-64.62366000
124.93133545,-65.55478000
125.02670288,-67.43237000
125.12207031,-70.40246000
125.21743774,-72.88514000
125.31280518,-65.17321000
125.40817261,-62.60737000
125.50354004,-67.16407000
125.59890747,-78.27540000
125.69427490,-70.55394000
125.78964233,-65.99811000
125.88500977,-67.34208000
125.98037720,-65.22923000
126.07574463,-63.80622000
126.17111206,-69.07343000
126.26647949,-72.52155000
126.36184692,-64.01199000
126.45721436,-63.02754000
126.55258179,-72.33973000
126.64794922,-71.05477000
126.74331665,-69.76401000
126.83868408,-71.23761000
126.93405151,-74.13393000
127.02941895,-80.28175000
127.12478638,-76.32168000
127.22015381,-73.56839000
127.31552124,-88.49629000
127.41088867,-75.16751000
127.50625610,-72.01303000
127.60162354,-69.17699000
127.69699097,-64.50358000
127.79235840,-64.48871000
127.88772583,-64.25247000
127.98309326,-64.24964000
128.07846069,-67.31886000
128.17382813,-66.50758000
128.26919556,-63.30095000
128.36456299,-61.03941000
128.45993042,-62.87448000
128.55529785,-67.88687000
128.65066528,-71.14597000
128.74603271,-73.78916000
128.84140015,-65.94006000
128.93676758,-70.44189000
129.03213501,-74.83926000
129.12750244,-69.71469000
129.22286987,-67.82952000
129.31823730,-73.05522000
129.41360474,-92.57672000
129.50897217,-71.66010000
129.60433960,-66.01281000
129.69970703,-70.22663000
129.79507446,-73.06403000
129.89044189,-68.68037000
129.98580933,-65.16036000
130.08117676,-61.35498000
130.17654419,-61.67550000
130.27191162,-68.51099000
130.36727905,-81.15779000
130.46264648,-73.11144000
130.55801392,-67.01563000
130.65338135,-67.69837000
130.74874878,-70.46683000
130.84411621,-76.51554000
130.93948364,-77.52709000
131.03485107,-71.27773000
131.13021851,-71.90531000
131.22558594,-83.40160000
131.32095337,-77.43394000
131.41632080,-67.73314000
131.51168823,-68.31119000
131.60705566,-62.13249000
131.70242310,-61.04289000
131.79779053,-62.43168000
131.89315796,-73.77248000
131.98852539,-69.06069000
132.08389282,-64.08337000
132.17926025,-62.37122000
132.27462769,-66.26379000
132.36999512,-69.79616000
132.46536255,-68.32765000
132.56072998,-71.19590000
132.65609741,-61.46500000
132.75146484,-61.60993000
132.84683228,-66.21473000
132.94219971,-66.33092000
133.03756714,-64.53477000
133.13293457,-68.98298000
133.22830200,-69.92358000
133.32366943,-70.10474000
133.41903687,-78.51544000
133.51440430,-74.45095000
133.60977173,-69.62573000
133.70513916,-65.50295000
133.80050659,-65.74052000
133.89587402,-69.53945000
133.99124146,-75.89906000
134.08660889,-69.94028000
134.18197632,-66.75017000
134.27734375,-73.72971000
134.37271118,-73.40987000
134.46807861,-66.69189000
134.56344604,-63.44049000
134.65881348,-61.19717000
134.75418091,-61.48157000
134.84954834,-65.75433000
134.94491577,-73.81567000
135.04028320,-73.59584000
135.13565063,-76.61103000
135.23101807,-77.31069000
135.32638550,-83.12547000
135.42175293,-76.49211000
135.51712036,-68.86720000
135.61248779,-65.35291000
135.70785522,-63.17691000
135.80322266,-62.66006000
135.89859009,-65.12603000
135.99395752,-66.45649000
136.08932495,-71.45832000
136.18469238,-73.02199000
136.28005981,-67.31973000
136.37542725,-67.36932000
136.47079468,-67.86414000
136.56616211,-64.73679000
136.66152954,-66.55705000
136.75689697,-68.21206000
136.85226440,-68.16959000
136.94763184,-72.58614000
137.04299927,-75.10342000
137.13836670,-74.50843000
137.23373413,-71.47704000
137.32910156,-73.56778000
137.42446899,-65.20171000
137.51983643,-68.29630000
137.61520386,-81.25515000
137.71057129,-74.36240000
137.80593872,-76.64309000
137.90130615,-66.14217000
137.99667358,-77.01138000
138.09204102,-66.27763000
138.18740845,-67.37962000
138.28277588,-74.36258000
138.37814331,-74.49272000
138.47351074,-66.61168000
138.56887817,-65.62548000
138.66424561,-67.80205000
138.75961304,-64.25484000
138.85498047,-63.62498000
138.95034790,-69.56850000
139.04571533,-73.12694000
139.14108276,-65.37399000
139.23645020,-63.52753000
139.33181763,-64.26006000
139.42718506,-64.19180000
139.52255249,-67.30717000
139.61791992,-83.28612000
139.71328735,-81.39413000
139.80865479,-68.97788000
139.90402222,-62.93734000
139.99938965,-63.97576000
140.09475708,-74.70733000
140.19012451,-73.88116000
140.28549194,-77.87222000
140.38085938,-70.29176000
140.47622681,-64.91554000
140.57159424,-63.23290000
140.66696167,-65.55846000
140.76232910,-66.28524000
140.85769653,-70.86840000
140.95306396,-70.42575000
141.04843140,-63.80009000
141.14379883,-62.95223000
141.23916626,-67.60099000
141.33453369,-72.40447000
141.42990112,-68.20615000
141.52526855,-65.47332000
141.62063599,-67.96914000
141.71600342,-73.90664000
141.81137085,-72.50311000
141.90673828,-68.07725000
142.00210571,-66.85513000
142.09747314,-64.16488000
142.19284058,-65.31280000
142.28820801,-69.49854000
142.38357544,-75.77422000
142.47894287,-82.82175000
142.57431030,-77.68922000
142.66967773,-70.82610000
142.76504517,-69.86504000
142.86041260,-67.35223000
142.95578003,-70.79302000
143.05114746,-77.58885000
143.14651489,-77.08186000
143.24188232,-74.40862000
143.33724976,-72.41505000
143.43261719,-72.70944000
143.52798462,-69.34622000
143.62335205,-64.69623000
143.71871948,-65.56097000
143.81408691,-68.15348000
143.90945435,-66.07465000
144.00482178,-66.42045000
144.10018921,-75.02359000
144.19555664,-75.78706000
144.29092407,-77.71272000
144.38629150,-72.21726000
144.48165894,-68.16360000
144.57702637,-66.69723000
144.67239380,-70.67544000
144.76776123,-77.25137000
144.86312866,-75.06387000
144.95849609,-74.62671000
145.05386353,-66.10715000
145.14923096,-69.97349000
145.24459839,-73.02711000
145.33996582,-67.33831000
145.43533325,-68.22150000
145.53070068,-69.26513000
145.62606812,-75.00856000
145.72143555,-80.31213000
145.81680298,-79.56680000
145.91217041,-69.83138000
146.00753784,-65.41256000
146.10290527,-67.11415000
146.19827271,-70.02355000
146.29364014,-68.02328000
146.38900757,-67.87925000
146.48437500,-69.63176000
146.57974243,-69.60492000
146.67510986,-71.57359000
146.77047729,-96.41247000
146.86584473,-65.35839000
146.96121216,-61.86108000
147.05657959,-66.64417000
147.15194702,-80.09414000
147.24731445,-85.59776000
147.34268188,-70.25403000
147.43804932,-65.81355000
147.53341675,-69.13043000
147.62878418,-77.85624000
147.72415161,-80.69728000
147.81951904,-72.64153000
147.91488647,-65.88836000
148.01025391,-64.18915000
148.10562134,-67.01323000
148.20098877,-67.28693000
148.29635620,-65.72562000
148.39172363,-67.76314000
148.48709106,-71.52669000
148.58245850,-68.61701000
148.67782593,-68.28889000
148.77319336,-66.70160000
148.86856079,-64.54764000
148.96392822,-66.42552000
149.05929565,-71.73391000
149.15466309,-77.20338000
149.25003052,-69.58809000
149.34539795,-65.71005000
149.44076538,-68.14322000
149.53613281,-76.36138000
149.63150024,-81.24385000
149.72686768,-70.80003000
149.82223511,-65.33588000
149.91760254,-66.41465000
150.01296997,-79.20409000
150.10833740,-72.75191000
150.20370483,-71.28256000
150.29907227,-68.99602000
150.39443970,-66.05753000
150.48980713,-66.58904000
150.58517456,-70.69232000
150.68054199,-69.42282000
150.77590942,-79.15275000
150.87127686,-65.36438000
150.96664429,-62.01084000
151.06201172,-63.92634000
151.15737915,-72.02941000
151.25274658,-76.10068000
151.34811401,-67.67123000
151.44348145,-65.56119000
151.53884888,-67.54688000
151.63421631,-74.04060000
151.72958374,-69.83562000
151.82495117,-64.36336000
151.92031860,-66.03178000
152.01568604,-75.69938000
152.11105347,-71.38694000
152.20642090,-75.18197000
152.30178833,-76.37509000
152.39715576,-69.17758000
152.49252319,-76.39925000
152.58789063,-74.21226000
152.68325806,-78.34347000
152.77862549,-74.16889000
152.87399292,-67.97136000
152.96936035,-67.72128000
153.06472778,-72.75529000
153.16009521,-85.16522000
153.25546265,-68.51118000
153.35083008,-65.94694000
153.44619751,-65.37359000
153.54156494,-69.38170000
153.63693237,-75.57733000
153.73229980,-65.27647000
153.82766724,-66.71661000
153.92303467,-76.17915000
154.01840210,-79.50121000
154.11376953,-70.37460000
154.20913696,-66.59697000
154.30450439,-64.81995000
154.39987183,-61.74540000
154.49523926,-60.22086000
154.59060669,-62.41010000
154.68597412,-67.15995000
154.78134155,-68.62332000
154.87670898,-66.61397000
154.97207642,-66.75105000
155.06744385,-69.06808000
155.16281128,-75.45352000
155.25817871,-75.88330000
155.35354614,-75.22739000
155.44891357,-67.14896000
155.54428101,-65.87270000
155.63964844,-64.48471000
155.73501587,-65.57576000
155.83038330,-74.29937000
155.92575073,-68.94387000
156.02111816,-75.13367000
156.11648560,-83.75266000
156.21185303,-78.40237000
156.30722046,-78.32079000
156.40258789,-70.74443000
156.49795532,-64.16036000
156.59332275,-66.61744000
156.68869019,-62.72423000
156.78405762,-62.14225000
156.87942505,-65.66788000
156.97479248,-66.54138000
157.07015991,-66.30631000
157.16552734,-76.05766000
157.26089478,-69.06385000
157.35626221,-66.84499000
157.45162964,-72.99693000
157.54699707,-69.92047000
157.64236450,-63.73148000
157.73773193,-64.14153000
157.83309937,-71.87539000
157.92846680,-74.59218000
158.02383423,-90.68768000
158.11920166,-73.80860000
158.21456909,-73.38110000
158.30993652,-70.07626000
158.40530396,-69.29008000
158.50067139,-76.24454000
158.59603882,-73.14806000
158.69140625,-65.04742000
158.78677368,-61.81217000
158.88214111,-63.94855000
158.97750854,-75.74916000
159.07287598,-82.09769000
159.16824341,-84.50984000
159.26361084,-70.86684000
159.35897827,-68.50648000
159.45434570,-68.12381000
159.54971313,-63.27345000
159.64508057,-65.75919000
159.74044800,-69.06480000
159.83581543,-70.08284000
159.93118286,-66.65002000
160.02655029,-65.74990000
160.12191772,-67.92932000
160.21728516,-69.48661000
160.31265259,-70.21806000
160.40802002,-110.94100000
160.50338745,-67.31709000
160.59875488,-65.40754000
160.69412231,-68.41393000
160.78948975,-74.13811000
160.88485718,-77.45405000
160.98022461,-84.42165000
161.07559204,-69.49753000
161.17095947,-69.10338000
161.26632690,-70.34403000
161.36169434,-68.76942000
161.45706177,-71.03882000
161.55242920,-68.18465000
161.64779663,-63.20457000
161.74316406,-63.43022000
161.83853149,-64.09020000
161.93389893,-67.85519000
162.02926636,-81.01593000
162.12463379,-69.80753000
162.22000122,-64.86259000
162.31536865,-66.93636000
162.41073608,-79.06242000
162.50610352,-73.11523000
162.60147095,-68.86166000
162.69683838,-67.57340000
162.79220581,-73.63045000
162.88757324,-73.33203000
162.98294067,-73.61359000
163.07830811,-79.57608000
163.17367554,-72.29188000
163.26904297,-70.71999000
163.36441040,-71.76446000
163.45977783,-74.72045000
163.55514526,-71.75491000
163.65051270,-77.19344000
163.74588013,-81.10665000
163.84124756,-79.10117000
163.93661499,-74.03228000
164.03198242,-73.18821000
164.12734985,-73.30548000
164.22271729,-76.18750000
164.31808472,-68.97504000
164.41345215,-65.19137000
164.50881958,-65.08453000
164.60418701,-70.68079000
164.69955444,-79.59779000
164.79492188,-71.95029000
164.89028931,-69.97234000
164.98565674,-69.63345000
165.08102417,-68.00864000
165.17639160,-65.50139000
165.27175903,-65.13374000
165.36712646,-63.07738000
165.46249390,-63.95432000
165.55786133,-72.04050000
165.65322876,-64.90643000
165.74859619,-63.38507000
165.84396362,-67.65950000
165.93933105,-71.67155000
166.03469849,-68.76894000
166.13006592,-68.09933000
166.22543335,-69.53204000
166.32080078,-69.33794000
166.41616821,-68.50057000
166.51153564,-77.47516000
166.60690308,-70.31670000
166.70227051,-69.39517000
166.79763794,-76.50935000
166.89300537,-67.75952000
166.98837280,-79.55005000
167.08374023,-65.08230000
167.17910767,-62.53956000
167.27447510,-62.77329000
167.36984253,-64.82085000
167.46520996,-65.94983000
167.56057739,-66.83556000
167.65594482,-71.72219000
167.75131226,-66.02808000
167.84667969,-68.21954000
167.94204712,-72.85959000
168.03741455,-70.78783000
168.13278198,-79.34156000
168.22814941,-80.90054000
168.32351685,-72.30252000
168.41888428,-71.23264000
168.51425171,-73.41617000
168.60961914,-67.55394000
168.70498657,-64.47913000
168.80035400,-68.24085000
168.89572144,-71.18558000
168.99108887,-69.41856000
169.08645630,-75.54177000
169.18182373,-73.24973000
169.27719116,-69.35201000
169.37255859,-63.76040000
169.46792603,-61.83323000
169.56329346,-65.57323000
169.65866089,-78.59874000
169.75402832,-69.88841000
169.84939575,-67.04519000
169.94476318,-63.24209000
170.04013062,-61.59378000
170.13549805,-63.69749000
170.23086548,-71.98177000
170.32623291,-67.47883000
170.42160034,-65.51707000
170.51696777,-69.82297000
170.61233521,-69.72392000
170.70770264,-76.07171000
170.80307007,-89.15794000
170.89843750,-77.73705000
170.99380493,-70.68190000
171.08917236,-79.88657000
171.18453979,-72.83380000
171.27990723,-73.74921000
171.37527466,-73.58034000
171.47064209,-68.60114000
171.56600952,-68.54982000
171.66137695,-68.51019000
171.75674438,-65.41865000
171.85211182,-64.14211000
171.94747925,-66.08878000
172.04284668,-65.92174000
172.13821411,-69.72667000
172.23358154,-70.86516000
172.32894897,-63.75519000
172.42431641,-65.08864000
172.51968384,-72.10003000
172.61505127,-76.58699000
172.71041870,-68.60728000
172.80578613,-66.17051000
172.90115356,-69.80788000
172.99652100,-77.23804000
173.09188843,-74.33835000
173.18725586,-72.05058000
173.28262329,-73.13615000
173.37799072,-76.40200000
173.47335815,-80.46463000
173.56872559,-77.57233000
173.66409302,-82.46365000
173.75946045,-69.58382000
173.85482788,-68.89447000
173.95019531,-75.25124000
174.04556274,-80.96856000
174.14093018,-75.25828000
174.23629761,-66.91421000
174.33166504,-64.34406000
174.42703247,-69.89831000
174.52239990,-76.39354000
174.61776733,-85.63210000
174.71313477,-65.94658000
174.80850220,-64.29530000
174.90386963,-72.78909000
174.99923706,-80.32235000
175.09460449,-82.48790000
175.18997192,-84.54178000
175.28533936,-76.12759000
175.38070679,-76.95151000
175.47607422,-74.45869000
175.57144165,-65.83611000
175.66680908,-70.99721000
175.76217651,-78.22406000
175.85754395,-70.10179000
175.95291138,-66.66376000
176.04827881,-64.51333000
176.14364624,-64.19241000
176.23901367,-66.49141000
176.33438110,-79.99564000
176.42974854,-67.79408000
176.52511597,-64.00132000
176.62048340,-63.42959000
176.71585083,-68.18048000
176.81121826,-73.02735000
176.90658569,-77.35534000
177.00195313,-71.57750000
177.09732056,-69.54061000
177.19268799,-73.25069000
177.28805542,-85.05093000
177.38342285,-78.77354000
177.47879028,-72.95701000
177.57415771,-69.82555000
177.66952515,-72.31413000
177.76489258,-80.18942000
177.86026001,-79.03647000
177.95562744,-71.32005000
178.05099487,-67.82519000
178.14636230,-71.53795000
178.24172974,-73.88434000
178.33709717,-65.56650000
178.43246460,-64.05481000
178.52783203,-64.77485000
178.62319946,-67.25338000
178.71856689,-74.79242000
178.81393433,-81.23837000
178.90930176,-78.62666000
179.00466919,-68.95480000
179.10003662,-68.63393000
179.19540405,-78.27609000
179.29077148,-70.08076000
179.38613892,-70.50526000
179.48150635,-66.27933000
179.57687378,-65.31944000
179.67224121,-65.70988000
179.76760864,-69.72513000
179.86297607,-68.16006000
179.95834351,-66.58341000
180.05371094,-67.32613000
180.14907837,-70.09781000
180.24444580,-66.52850000
180.33981323,-65.11537000
180.43518066,-71.05164000
180.53054810,-74.88429000
180.62591553,-72.15028000
180.72128296,-71.21958000
180.81665039,-74.85932000
180.91201782,-77.28671000
181.00738525,-72.68277000
181.10275269,-69.74133000
181.19812012,-70.62549000
181.29348755,-68.93056000
181.38885498,-68.46084000
181.48422241,-76.19247000
181.57958984,-71.40948000
181.67495728,-70.24171000
181.77032471,-67.76231000
181.86569214,-63.72797000
181.96105957,-66.46396000
182.05642700,-70.79974000
182.15179443,-73.25092000
182.24716187,-66.54573000
182.34252930,-60.60886000
182.43789673,-57.72660000
182.53326416,-58.99711000
182.62863159,-63.45708000
182.72399902,-74.14487000
182.81936646,-71.07947000
182.91473389,-68.37359000
183.01010132,-75.60914000
183.10546875,-99.96259000
183.20083618,-75.28333000
183.29620361,-75.92073000
183.39157104,-71.79772000
183.48693848,-66.20252000
183.58230591,-75.91213000
183.67767334,-70.23515000
183.77304077,-69.38335000
183.86840820,-72.80433000
183.96377563,-69.51048000
184.05914307,-65.10300000
184.15451050,-63.15630000
184.24987793,-66.16040000
184.34524536,-73.78472000
184.44061279,-76.77176000
184.53598022,-72.38402000
184.63134766,-65.69063000
184.72671509,-63.83900000
184.82208252,-64.18355000
184.91744995,-67.95370000
185.01281738,-67.40916000
185.10818481,-64.45558000
185.20355225,-68.40140000
185.29891968,-73.14462000
185.39428711,-76.78149000
185.48965454,-85.41375000
185.58502197,-82.82423000
185.68038940,-75.62865000
185.77575684,-66.28594000
185.87112427,-67.23042000
185.96649170,-66.99364000
186.06185913,-69.09801000
186.15722656,-73.88996000
186.25259399,-68.49110000
186.34796143,-64.03230000
186.44332886,-61.42345000
186.53869629,-65.10909000
186.63406372,-74.30268000
186.72943115,-75.16339000
186.82479858,-69.93874000
186.92016602,-68.25777000
187.01553345,-68.73041000
187.11090088,-67.43434000
187.20626831,-65.27205000
187.30163574,-65.02262000
187.39700317,-65.61211000
187.49237061,-65.51463000
187.58773804,-67.01492000
187.68310547,-72.87355000
187.77847290,-72.30756000
187.87384033,-66.02186000
187.96920776,-63.81216000
188.06457520,-65.52959000
188.15994263,-77.26483000
188.25531006,-71.79613000
188.35067749,-71.05240000
188.44604492,-73.95224000
188.54141235,-78.89622000
188.63677979,-67.46804000
188.73214722,-66.13329000
188.82751465,-69.53082000
188.92288208,-74.73982000
189.01824951,-66.73852000
189.11361694,-62.74692000
189.20898438,-66.84451000
189.30435181,-70.49325000
189.39971924,-64.57498000
189.49508667,-67.62788000
189.59045410,-67.20309000
189.68582153,-62.17044000
189.78118896,-62.24502000
189.87655640,-64.12488000
189.97192383,-63.69894000
190.06729126,-62.51423000
190.16265869,-67.28659000
190.25802612,-86.87499000
190.35339355,-66.73148000
190.44876099,-65.59003000
190.54412842,-71.43101000
190.63949585,-70.19487000
190.73486328,-68.53365000
190.83023071,-73.88125000
190.92559814,-68.26676000
191.02096558,-65.58839000
191.11633301,-78.17255000
191.21170044,-70.19877000
191.30706787,-72.40504000
191.40243530,-65.56462000
191.49780273,-62.20893000
191.59317017,-62.05973000
191.68853760,-61.22976000
191.78390503,-61.31841000
191.87927246,-62.41886000
191.97463989,-66.63388000
192.07000732,-74.19200000
192.16537476,-77.22678000
192.26074219,-66.44250000
192.35610962,-70.24294000
192.45147705,-77.95938000
192.54684448,-68.08740000
192.64221191,-70.46828000
192.73757935,-75.54904000
192.83294678,-69.08690000
192.92831421,-67.71922000
193.02368164,-66.30531000
193.11904907,-66.56046000
193.21441650,-67.34956000
193.30978394,-68.95410000
193.40515137,-72.13457000
193.50051880,-75.53233000
193.59588623,-80.35429000
193.69125366,-71.02719000
193.78662109,-70.52950000
193.88198853,-70.50931000
193.97735596,-70.98331000
194.07272339,-68.78558000
194.16809082,-67.18354000
194.26345825,-64.75084000
194.35882568,-63.12204000
194.45419312,-62.12661000
194.54956055,-63.09090000
194.64492798,-66.89062000
194.74029541,-68.96985000
194.83566284,-64.86988000
194.93103027,-64.62882000
195.02639771,-66.26791000
195.12176514,-69.63624000
195.21713257,-69.74725000
195.31250000,-63.86796000
195.40786743,-66.18251000
195.50323486,-68.99263000
195.59860229,-68.25748000
195.69396973,-70.13878000
195.78933716,-77.79001000
195.88470459,-73.21707000
195.98007202,-69.00054000
196.07543945,-66.01220000
196.17080688,-63.76885000
196.26617432,-63.26316000
196.36154175,-62.94380000
196.45690918,-67.16274000
196.55227661,-70.33884000
196.64764404,-68.24361000
196.74301147,-72.25043000
196.83837891,-66.99939000
196.93374634,-67.86991000
197.02911377,-68.77016000
197.12448120,-71.40551000
197.21984863,-70.83361000
197.31521606,-69.58554000
197.41058350,-73.38762000
197.50595093,-66.44697000
197.60131836,-61.74405000
197.69668579,-63.75423000
197.79205322,-71.86440000
197.88742065,-79.41293000
197.98278809,-71.72358000
198.07815552,-74.15616000
198.17352295,-76.38176000
198.26889038,-69.97929000
198.36425781,-64.27504000
198.45962524,-65.76920000
198.55499268,-67.42313000
198.65036011,-71.16269000
198.74572754,-80.71863000
198.84109497,-76.17522000
198.93646240,-76.72370000
199.03182983,-65.41331000
199.12719727,-65.67636000
199.22256470,-73.83319000
199.31793213,-76.00358000
199.41329956,-66.28933000
199.50866699,-62.79711000
199.60403442,-63.98283000
199.69940186,-69.47743000
199.79476929,-73.66556000
199.89013672,-72.99284000
199.98550415,-72.20306000
200.08087158,-66.27991000
200.17623901,-62.37226000
200.27160645,-60.33783000
200.36697388,-62.30968000
200.46234131,-65.66348000
200.55770874,-64.25504000
200.65307617,-64.48401000
200.74844360,-76.55247000
200.84381104,-68.70633000
200.93917847,-66.09541000
201.03454590,-69.27784000
201.12991333,-67.23927000
201.22528076,-64.59814000
201.32064819,-68.91245000
201.41601563,-71.41615000
201.51138306,-70.63725000
201.60675049,-70.83273000
201.70211792,-63.94505000
201.79748535,-62.99015000
201.89285278,-65.04256000
201.98822021,-67.36929000
202.08358765,-76.15012000
202.17895508,-68.23042000
202.27432251,-67.86994000
202.36968994,-72.79733000
202.46505737,-75.61685000
202.56042480,-69.11589000
202.65579224,-64.17456000
202.75115967,-65.50649000
202.84652710,-75.16284000
202.94189453,-72.72025000
203.03726196,-69.15873000
203.13262939,-67.40475000
203.22799683,-68.35317000
203.32336426,-75.90067000
203.41873169,-67.91110000
203.51409912,-66.96992000
203.60946655,-69.25278000
203.70483398,-71.07658000
203.80020142,-77.01041000
203.89556885,-73.69325000
203.99093628,-64.10092000
204.08630371,-63.14234000
204.18167114,-65.60201000
204.27703857,-65.88538000
204.37240601,-64.36204000
204.46777344,-61.96934000
204.56314087,-62.86189000
204.65850830,-65.85011000
204.75387573,-69.42015000
204.84924316,-66.81924000
204.94461060,-65.33998000
205.03997803,-66.91294000
205.13534546,-73.32363000
205.23071289,-75.98898000
205.32608032,-80.45755000
205.42144775,-69.17453000
205.51681519,-67.08980000
205.61218262,-65.01362000
205.70755005,-62.83235000
205.80291748,-64.01510000
205.89828491,-67.38804000
205.99365234,-72.46168000
206.08901978,-72.40395000
206.18438721,-73.11025000
206.27975464,-77.82372000
206.37512207,-71.54493000
206.47048950,-70.16267000
206.56585693,-70.33031000
206.66122437,-71.46892000
206.75659180,-82.24784000
206.85195923,-71.51057000
206.94732666,-68.24982000
207.04269409,-68.68460000
207.13806152,-66.85284000
207.23342896,-70.97532000
207.32879639,-68.44951000
207.42416382,-66.49360000
207.51953125,-71.50559000
207.61489868,-77.07979000
207.71026611,-68.64431000
207.80563354,-71.76485000
207.90100098,-92.19942000
207.99636841,-81.33340000
208.09173584,-81.09219000
208.18710327,-74.85198000
208.28247070,-66.20807000
208.37783813,-65.12451000
208.47320557,-74.21558000
208.56857300,-69.59204000
208.66394043,-65.37317000
208.75930786,-70.58585000
208.85467529,-67.14551000
208.95004272,-65.28851000
209.04541016,-67.22313000
209.14077759,-67.08627000
209.23614502,-75.21131000
209.33151245,-79.86072000
209.42687988,-75.51004000
209.52224731,-70.24669000
209.61761475,-66.23067000
209.71298218,-67.06275000
209.80834961,-68.39781000
209.90371704,-69.63382000
209.99908447,-74.07517000
210.09445190,-68.25577000
210.18981934,-62.96500000
210.28518677,-65.38503000
210.38055420,-70.72253000
210.47592163,-73.18891000
210.57128906,-70.81870000
210.66665649,-67.00327000
210.76202393,-65.28355000
210.85739136,-72.19083000
210.95275879,-67.68384000
211.04812622,-67.57372000
211.14349365,-75.35944000
211.23886108,-64.72417000
211.33422852,-61.24309000
211.42959595,-59.61198000
211.52496338,-60.06641000
211.62033081,-60.96039000
211.71569824,-62.68821000
211.81106567,-66.96837000
211.90643311,-71.85100000
212.00180054,-69.04987000
212.09716797,-67.91922000
212.19253540,-66.29825000
212.28790283,-68.01589000
212.38327026,-67.72910000
212.47863770,-67.72750000
212.57400513,-70.51876000
212.66937256,-64.99194000
212.76473999,-61.41804000
212.86010742,-62.97802000
212.95547485,-72.92207000
213.05084229,-73.64426000
213.14620972,-65.59147000
213.24157715,-64.37913000
213.33694458,-68.30088000
213.43231201,-80.99828000
213.52767944,-65.44082000
213.62304688,-67.03119000
213.71841431,-71.90569000
213.81378174,-66.08763000
213.90914917,-62.08950000
214.00451660,-61.47878000
214.09988403,-63.52204000
214.19525146,-65.92294000
214.29061890,-72.30254000
214.38598633,-90.77126000
214.48135376,-74.53690000
214.57672119,-71.02187000
214.67208862,-67.68485000
214.76745605,-70.14553000
214.86282349,-74.15804000
214.95819092,-72.33067000
215.05355835,-73.30452000
215.14892578,-69.41697000
215.24429321,-70.69901000
215.33966064,-74.87546000
215.43502808,-69.81976000
215.53039551,-64.92097000
215.62576294,-62.84105000
215.72113037,-63.37080000
215.81649780,-64.25845000
215.91186523,-66.36074000
216.00723267,-75.93189000
216.10260010,-75.95846000
216.19796753,-74.01331000
216.29333496,-69.10357000
216.38870239,-70.60387000
216.48406982,-69.22559000
216.57943726,-76.49879000
216.67480469,-69.18145000
216.77017212,-66.02923000
216.86553955,-69.30075000
216.96090698,-78.41783000
217.05627441,-71.86709000
217.15164185,-66.87738000
217.24700928,-68.14954000
217.34237671,-73.11048000
217.43774414,-70.81937000
217.53311157,-66.86036000
217.62847900,-67.17047000
217.72384644,-69.56297000
217.81921387,-72.95246000
217.91458130,-72.24854000
218.00994873,-67.68356000
218.10531616,-87.05718000
218.20068359,-70.91280000
218.29605103,-73.25428000
218.39141846,-70.01292000
218.48678589,-68.48247000
218.58215332,-66.20803000
218.67752075,-64.40298000
218.77288818,-63.96598000
218.86825562,-67.31485000
218.96362305,-75.90356000
219.05899048,-68.20170000
219.15435791,-64.34699000
219.24972534,-67.97997000
219.34509277,-64.00690000
219.44046021,-67.19460000
219.53582764,-84.29127000
219.63119507,-70.33807000
219.72656250,-73.29103000
219.82192993,-79.63854000
219.91729736,-71.68201000
220.01266479,-65.34960000
220.10803223,-66.09569000
220.20339966,-73.02426000
220.29876709,-81.43998000
220.39413452,-68.27525000
220.48950195,-61.51920000
220.58486938,-60.72209000
220.68023682,-65.19713000
220.77560425,-72.92766000
220.87097168,-84.92712000
220.96633911,-87.30935000
221.06170654,-73.75687000
221.15707397,-64.79375000
221.25244141,-63.31177000
221.34780884,-62.94657000
221.44317627,-60.62778000
221.53854370,-62.34188000
221.63391113,-72.24741000
221.72927856,-71.57830000
221.82464600,-77.32739000
221.92001343,-77.70003000
222.01538086,-70.41544000
222.11074829,-66.29842000
222.20611572,-65.19991000
222.30148315,-65.62255000
222.39685059,-67.53068000
222.49221802,-70.54440000
222.58758545,-66.58157000
222.68295288,-63.67772000
222.77832031,-66.10207000
222.87368774,-74.74325000
222.96905518,-73.52416000
223.06442261,-73.72746000
223.15979004,-66.61414000
223.25515747,-72.54015000
223.35052490,-75.07974000
223.44589233,-73.68552000
223.54125977,-80.45304000
223.63662720,-82.74957000
223.73199463,-83.51853000
223.82736206,-73.80423000
223.92272949,-76.20390000
224.01809692,-73.81341000
224.11346436,-69.79901000
224.20883179,-68.91193000
224.30419922,-75.30446000
224.39956665,-66.30219000
224.49493408,-68.01965000
224.59030151,-78.33846000
224.68566895,-74.34670000
224.78103638,-76.95470000
224.87640381,-79.87414000
224.97177124,-72.29161000
225.06713867,-69.78278000
225.16250610,-69.30917000
225.25787354,-70.59894000
225.35324097,-70.67371000
225.44860840,-65.86266000
225.54397583,-61.72932000
225.63934326,-63.12395000
225.73471069,-69.04035000
225.83007813,-79.56761000
225.92544556,-82.15555000
226.02081299,-69.01539000
226.11618042,-67.10001000
226.21154785,-69.75077000
226.30691528,-70.43978000
226.40228271,-65.37187000
226.49765015,-62.19457000
226.59301758,-63.30529000
226.68838501,-68.57431000
226.78375244,-78.71040000
226.87911987,-77.84746000
226.97448730,-73.27159000
227.06985474,-74.76186000
227.16522217,-90.34801000
227.26058960,-76.67741000
227.35595703,-72.40830000
227.45132446,-71.62422000
227.54669189,-70.21001000
227.64205933,-73.25385000
227.73742676,-68.61381000
227.83279419,-64.67221000
227.92816162,-61.83572000
228.02352905,-63.37892000
228.11889648,-66.54971000
228.21426392,-66.31226000
228.30963135,-63.94749000
228.40499878,-64.45936000
228.50036621,-67.54874000
228.59573364,-75.81935000
228.69110107,-73.88122000
228.78646851,-72.61121000
228.88183594,-77.31294000
228.97720337,-73.43745000
229.07257080,-66.66859000
229.16793823,-65.18812000
229.26330566,-67.08646000
229.35867310,-76.64923000
229.45404053,-77.31910000
229.54940796,-70.15708000
229.64477539,-65.12912000
229.74014282,-64.54818000
229.83551025,-73.21764000
229.93087769,-66.71399000
230.02624512,-63.22181000
230.12161255,-65.18306000
230.21697998,-66.49110000
230.31234741,-67.89612000
230.40771484,-73.91357000
230.50308228,-73.73032000
230.59844971,-72.39670000
230.69381714,-78.97612000
230.78918457,-72.90041000
230.88455200,-72.63331000
230.97991943,-69.82976000
231.07528687,-68.37643000
231.17065430,-69.49982000
231.26602173,-66.94321000
231.36138916,-65.94321000
231.45675659,-71.05286000
231.55212402,-66.12955000
231.64749146,-65.98560000
231.74285889,-69.52263000
231.83822632,-74.52979000
231.93359375,-70.05428000
232.02896118,-69.04414000
232.12432861,-72.28078000
232.21969604,-68.10141000
232.31506348,-72.62614000
232.41043091,-81.45524000
232.50579834,-70.87288000
232.60116577,-72.77900000
232.69653320,-73.15308000
232.79190063,-70.82829000
232.88726807,-69.08714000
232.98263550,-69.49478000
233.07800293,-77.23233000
233.17337036,-76.32560000
233.26873779,-65.41049000
233.36410522,-63.27447000
233.45947266,-69.46906000
233.55484009,-66.44569000
233.65020752,-65.79551000
233.74557495,-67.91734000
233.84094238,-67.45988000
233.93630981,-69.60374000
234.03167725,-77.54744000
234.12704468,-71.24512000
234.22241211,-70.18930000
234.31777954,-69.53544000
234.41314697,-67.18766000
234.50851440,-74.17467000
234.60388184,-69.06364000
234.69924927,-63.49844000
234.79461670,-65.91582000
234.88998413,-68.03355000
234.98535156,-65.94592000
235.08071899,-67.03471000
235.17608643,-70.86903000
235.27145386,-73.15022000
235.36682129,-87.96423000
235.46218872,-70.55270000
235.55755615,-67.46861000
235.65292358,-70.38156000
235.74829102,-78.86079000
235.84365845,-71.49329000
235.93902588,-68.18257000
236.03439331,-69.33208000
236.12976074,-66.51382000
236.22512817,-69.32121000
236.32049561,-92.06657000
236.41586304,-77.70328000
236.51123047,-72.56126000
236.60659790,-67.23592000
236.70196533,-75.19103000
236.79733276,-73.13704000
236.89270020,-71.55162000
236.98806763,-79.20752000
237.08343506,-72.45127000
237.17880249,-68.15953000
237.27416992,-69.64458000
237.36953735,-72.99243000
237.46490479,-66.54279000
237.56027222,-66.07256000
237.65563965,-66.44243000
237.75100708,-72.87138000
237.84637451,-84.70483000
237.94174194,-78.42783000
238.03710938,-68.83916000
238.13247681,-66.96621000
238.22784424,-65.83006000
238.32321167,-64.75376000
238.41857910,-65.62833000
238.51394653,-69.81307000
238.60931396,-72.96490000
238.70468140,-72.34538000
238.80004883,-74.16815000
238.89541626,-73.55715000
238.99078369,-71.90857000
239.08615112,-71.55670000
239.18151855,-73.24700000
239.27688599,-68.45379000
239.37225342,-64.10137000
239.46762085,-62.87366000
239.56298828,-66.36055000
239.65835571,-71.33200000
239.75372314,-70.24844000
239.84909058,-69.42619000
239.94445801,-68.83617000
240.03982544,-70.50114000
240.13519287,-69.71175000
240.23056030,-64.78618000
240.32592773,-64.43385000
240.42129517,-68.18766000
240.51666260,-74.53843000
240.61203003,-67.59882000
240.70739746,-66.70416000
240.80276489,-76.92783000
240.89813232,-70.56683000
240.99349976,-70.42798000
241.08886719,-67.87975000
241.18423462,-70.60998000
241.27960205,-70.50854000
241.37496948,-70.30099000
241.47033691,-73.69943000
241.56570435,-68.22271000
241.66107178,-67.27570000
241.75643921,-93.70073000
241.85180664,-68.46684000
241.94717407,-67.81117000
242.04254150,-64.46376000
242.13790894,-62.74225000
242.23327637,-65.92834000
242.32864380,-69.41959000
242.42401123,-69.38941000
242.51937866,-67.19764000
242.61474609,-69.82670000
242.71011353,-78.35074000
242.80548096,-70.97283000
242.90084839,-69.54202000
242.99621582,-70.80502000
243.09158325,-75.90099000
243.18695068,-66.80324000
243.28231812,-65.31238000
243.37768555,-67.39948000
243.47305298,-67.84408000
243.56842041,-66.28413000
243.66378784,-72.40861000
243.75915527,-79.60845000
243.85452271,-71.63266000
243.94989014,-74.19424000
244.04525757,-72.19801000
244.14062500,-68.07515000
244.23599243,-64.79497000
244.33135986,-62.99168000
244.42672729,-63.76938000
244.52209473,-65.27834000
244.61746216,-70.76495000
244.71282959,-76.45736000
244.80819702,-73.11723000
244.90356445,-68.43351000
244.99893188,-63.35154000
245.09429932,-62.07812000
245.18966675,-64.10516000
245.28503418,-72.56726000
245.38040161,-74.81612000
245.47576904,-73.43057000
245.57113647,-73.04698000
245.66650391,-71.46783000
245.76187134,-63.47978000
245.85723877,-62.67244000
245.95260620,-65.76437000
246.04797363,-65.85204000
246.14334106,-64.10532000
246.23870850,-65.06746000
246.33407593,-69.82380000
246.42944336,-67.75173000
246.52481079,-79.70124000
246.62017822,-68.97057000
246.71554565,-66.86988000
246.81091309,-67.17484000
246.90628052,-69.96972000
247.00164795,-73.78483000
247.09701538,-76.43250000
247.19238281,-72.09779000
247.28775024,-67.37537000
247.38311768,-64.60098000
247.47848511,-69.53570000
247.57385254,-68.73289000
247.66921997,-81.94370000
247.76458740,-70.74828000
247.85995483,-68.54359000
247.95532227,-65.29195000
248.05068970,-65.16032000
248.14605713,-68.01561000
248.24142456,-70.61316000
248.33679199,-72.90256000
248.43215942,-76.11766000
248.52752686,-82.84444000
248.62289429,-71.20541000
248.71826172,-66.66524000
248.81362915,-67.66330000
248.90899658,-71.78088000
249.00436401,-73.30217000
249.09973145,-69.99514000
249.19509888,-78.47650000
249.29046631,-71.93572000
249.38583374,-67.99010000
249.48120117,-64.84473000
249.57656860,-62.31050000
249.67193604,-66.70554000
249.76730347,-81.23511000
249.86267090,-72.94020000
249.95803833,-68.18879000
250.05340576,-70.94293000
250.14877319,-73.38680000
250.24414063,-75.94468000
250.33950806,-73.57427000
250.43487549,-77.82714000
250.53024292,-70.82774000
250.62561035,-67.73280000
250.72097778,-72.08218000
250.81634521,-70.40012000
250.91171265,-71.79725000
251.00708008,-70.56899000
251.10244751,-66.47282000
251.19781494,-70.94958000
251.29318237,-67.32268000
251.38854980,-70.57417000
251.48391724,-74.85097000
251.57928467,-71.32485000
251.67465210,-67.69875000
251.77001953,-66.51941000
251.86538696,-72.80172000
251.96075439,-77.78083000
252.05612183,-78.74747000
252.15148926,-73.63538000
252.24685669,-65.56087000
252.34222412,-63.59555000
252.43759155,-63.04561000
252.53295898,-68.07401000
252.62832642,-70.57562000
252.72369385,-64.00253000
252.81906128,-64.07919000
252.91442871,-68.19331000
253.00979614,-71.82542000
253.10516357,-73.65543000
253.20053101,-66.75378000
253.29589844,-66.09219000
253.39126587,-67.93571000
253.48663330,-67.50359000
253.58200073,-65.47918000
253.67736816,-64.57160000
253.77273560,-66.91716000
253.86810303,-77.15656000
253.96347046,-63.46993000
254.05883789,-61.89275000
254.15420532,-67.59263000
254.24957275,-67.56765000
254.34494019,-67.23396000
254.44030762,-70.71919000
254.53567505,-69.87990000
254.63104248,-64.62896000
254.72640991,-61.69368000
254.82177734,-61.93337000
254.91714478,-65.22932000
255.01251221,-66.33449000
255.10787964,-68.84230000
255.20324707,-73.05698000
255.29861450,-65.14112000
255.39398193,-65.38703000
255.48934937,-75.02718000
255.58471680,-68.62762000
255.68008423,-66.89632000
255.77545166,-73.29166000
255.87081909,-68.79697000
255.96618652,-64.43330000
256.06155396,-67.69070000
256.15692139,-69.70242000
256.25228882,-69.42200000
256.34765625,-89.71345000
256.44302368,-69.48079000
256.53839111,-65.41366000
256.63375854,-61.88083000
256.72912598,-61.97171000
256.82449341,-67.11055000
256.91986084,-69.99980000
257.01522827,-69.67651000
257.11059570,-67.15796000
257.20596313,-68.46366000
257.30133057,-74.16701000
257.39669800,-70.38593000
257.49206543,-69.27676000
257.58743286,-70.41791000
257.68280029,-70.06912000
257.77816772,-70.46899000
257.87353516,-68.60947000
257.96890259,-67.05080000
258.06427002,-71.72092000
258.15963745,-68.43855000
258.25500488,-68.90947000
258.35037231,-74.86723000
258.44573975,-72.13080000
258.54110718,-74.45928000
258.63647461,-79.09642000
258.73184204,-80.84579000
258.82720947,-71.22869000
258.92257690,-68.78902000
259.01794434,-67.95416000
259.11331177,-67.60931000
259.20867920,-65.75517000
259.30404663,-65.11361000
259.39941406,-65.62636000
259.49478149,-63.63397000
259.59014893,-61.26134000
259.68551636,-61.51855000
259.78088379,-64.39259000
259.87625122,-65.91378000
259.97161865,-66.23600000
260.06698608,-67.88164000
260.16235352,-74.92644000
260.25772095,-80.20324000
260.35308838,-79.43045000
260.44845581,-74.24451000
260.54382324,-72.10467000
260.63919067,-72.53828000
260.73455811,-73.49150000
260.82992554,-89.30070000
260.92529297,-78.39499000
261.02066040,-73.32098000
261.11602783,-69.82532000
261.21139526,-67.40948000
261.30676270,-73.51992000
261.40213013,-80.87227000
261.49749756,-69.87892000
261.59286499,-68.68677000
261.68823242,-73.42772000
261.78359985,-69.63251000
261.87896729,-69.43060000
261.97433472,-73.37148000
262.06970215,-70.59008000
262.16506958,-78.18639000
262.26043701,-75.02534000
262.35580444,-69.23773000
262.45117188,-65.56766000
262.54653931,-65.38982000
262.64190674,-69.47306000
262.73727417,-86.82494000
262.83264160,-72.11704000
262.92800903,-71.23560000
263.02337646,-65.43266000
263.11874390,-61.42548000
263.21411133,-61.40116000
263.30947876,-64.63419000
263.40484619,-67.14748000
263.50021362,-71.74014000
263.59558105,-71.37109000
263.69094849,-68.35107000
263.78631592,-67.10507000
263.88168335,-68.30276000
263.97705078,-69.03177000
264.07241821,-69.54514000
264.16778564,-69.11107000
264.26315308,-73.41794000
264.35852051,-72.94485000
264.45388794,-67.53394000
264.54925537,-65.86072000
264.64462280,-69.49658000
264.73999023,-77.39269000
264.83535767,-79.11909000
264.93072510,-77.30392000
265.02609253,-72.62154000
265.12145996,-80.38574000
265.21682739,-69.66148000
265.31219482,-72.96556000
265.40756226,-72.14586000
265.50292969,-66.28529000
265.59829712,-63.95956000
265.69366455,-68.89072000
265.78903198,-69.37512000
265.88439941,-64.86537000
265.97976685,-65.68559000
266.07513428,-67.56292000
266.17050171,-69.19652000
266.26586914,-72.69801000
266.36123657,-71.14964000
266.45660400,-72.37830000
266.55197144,-68.97611000
266.64733887,-68.88572000
266.74270630,-70.12088000
266.83807373,-71.02531000
266.93344116,-90.84953000
267.02880859,-66.94926000
267.12417603,-63.28003000
267.21954346,-63.30920000
267.31491089,-63.65370000
267.41027832,-64.22523000
267.50564575,-67.38152000
267.60101318,-82.16381000
267.69638062,-80.05508000
267.79174805,-75.29203000
267.88711548,-69.33429000
267.98248291,-65.38391000
268.07785034,-63.22416000
268.17321777,-63.79369000
268.26858521,-66.17389000
268.36395264,-72.17316000
268.45932007,-67.65829000
268.55468750,-64.30260000
268.65005493,-67.82858000
268.74542236,-68.90983000
268.84078979,-67.36768000
268.93615723,-72.98959000
269.03152466,-74.47210000
269.12689209,-69.42557000
269.22225952,-70.24992000
269.31762695,-71.23453000
269.41299438,-70.05939000
269.50836182,-71.42491000
269.60372925,-84.44495000
269.69909668,-76.71198000
269.79446411,-72.44650000
269.88983154,-72.53072000
269.98519897,-68.69000000
270.08056641,-65.40452000
270.17593384,-70.82040000
270.27130127,-78.43644000
270.36666870,-72.33759000
270.46203613,-67.32007000
270.55740356,-66.27042000
270.65277100,-62.49733000
270.74813843,-63.17963000
270.84350586,-65.57941000
270.93887329,-66.67107000
271.03424072,-69.88476000
271.12960815,-79.39108000
271.22497559,-70.67043000
271.32034302,-63.08769000
271.41571045,-62.85038000
271.51107788,-63.93378000
271.60644531,-62.26206000
271.70181274,-63.54930000
271.79718018,-70.25264000
271.89254761,-75.03391000
271.98791504,-65.47554000
272.08328247,-63.73662000
272.17864990,-65.47919000
272.27401733,-71.82397000
272.36938477,-73.36705000
272.46475220,-67.65020000
272.56011963,-68.87546000
272.65548706,-83.20525000
272.75085449,-73.67759000
272.84622192,-70.35976000
272.94158936,-69.71206000
273.03695679,-69.80079000
273.13232422,-77.24910000
273.22769165,-71.24613000
273.32305908,-65.10567000
273.41842651,-65.25490000
273.51379395,-68.94454000
273.60916138,-75.90562000
273.70452881,-65.95650000
273.79989624,-66.42415000
273.89526367,-68.01176000
273.99063110,-63.09019000
274.08599854,-63.67907000
274.18136597,-64.60865000
274.27673340,-69.18081000
274.37210083,-70.36520000
274.46746826,-63.92543000
274.56283569,-67.21172000
274.65820313,-75.43304000
274.75357056,-80.58238000
274.84893799,-67.68231000
274.94430542,-65.13759000
275.03967285,-68.81271000
275.13504028,-74.18099000
275.23040771,-68.14365000
275.32577515,-64.92844000
275.42114258,-65.10179000
275.51651001,-65.72689000
275.61187744,-69.20122000
275.70724487,-82.14042000
275.80261230,-69.17126000
275.89797974,-66.97935000
275.99334717,-70.71248000
276.08871460,-73.47318000
276.18408203,-67.10324000
276.27944946,-67.41093000
276.37481689,-68.69660000
276.47018433,-67.71094000
276.56555176,-66.16902000
276.66091919,-73.08809000
276.75628662,-72.74643000
276.85165405,-88.69323000
276.94702148,-72.99693000
277.04238892,-66.51143000
277.13775635,-65.64324000
277.23312378,-72.06673000
277.32849121,-67.52255000
277.42385864,-65.66840000
277.51922607,-63.53313000
277.61459351,-63.50510000
277.70996094,-66.32961000
277.80532837,-72.98359000
277.90069580,-77.78739000
277.99606323,-71.96354000
278.09143066,-72.36072000
278.18679810,-72.24504000
278.28216553,-74.05054000
278.37753296,-68.80861000
278.47290039,-62.37202000
278.56826782,-64.40607000
278.66363525,-77.01427000
278.75900269,-74.43375000
278.85437012,-68.46890000
278.94973755,-61.91439000
279.04510498,-61.22254000
279.14047241,-63.46514000
279.23583984,-70.70707000
279.33120728,-71.00446000
279.42657471,-65.88676000
279.52194214,-63.43992000
279.61730957,-66.46244000
279.71267700,-76.46793000
279.80804443,-68.18528000
279.90341187,-66.84744000
279.99877930,-70.14459000
280.09414673,-75.19431000
280.18951416,-67.88664000
280.28488159,-66.59337000
280.38024902,-70.75778000
280.47561646,-72.89119000
280.57098389,-77.84155000
280.66635132,-87.41965000
280.76171875,-74.82870000
280.85708618,-71.27037000
280.95245361,-66.25629000
281.04782104,-64.80195000
281.14318848,-67.25608000
281.23855591,-72.53593000
281.33392334,-75.23221000
281.42929077,-80.32447000
281.52465820,-81.65569000
281.62002563,-70.48499000
281.71539307,-65.72632000
281.81076050,-68.24944000
281.90612793,-90.78152000
282.00149536,-67.84634000
282.09686279,-63.16491000
282.19223022,-63.40450000
282.28759766,-66.66545000
282.38296509,-69.97054000
282.47833252,-69.00035000
282.57369995,-70.23584000
282.66906738,-72.19361000
282.76443481,-64.30595000
282.85980225,-63.40256000
282.95516968,-66.89116000
283.05053711,-74.70025000
283.14590454,-76.82310000
283.24127197,-77.72333000
283.33663940,-87.82336000
283.43200684,-71.35505000
283.52737427,-64.81492000
283.62274170,-69.20454000
283.71810913,-69.03629000
283.81347656,-67.94109000
283.90884399,-70.28833000
284.00421143,-70.79066000
284.09957886,-70.73023000
284.19494629,-71.86472000
284.29031372,-66.64514000
284.38568115,-63.22633000
284.48104858,-64.77772000
284.57641602,-75.08073000
284.67178345,-80.02129000
284.76715088,-72.99529000
284.86251831,-66.64353000
284.95788574,-74.77789000
285.05325317,-72.36917000
285.14862061,-85.92012000
285.24398804,-67.83546000
285.33935547,-68.18445000
285.43472290,-79.22343000
285.53009033,-74.65466000
285.62545776,-68.26921000
285.72082520,-74.91058000
285.81619263,-75.14458000
285.91156006,-73.96101000
286.00692749,-79.53404000
286.10229492,-72.18341000
286.19766235,-67.79867000
286.29302979,-68.21208000
286.38839722,-68.17208000
286.48376465,-68.73676000
286.57913208,-76.16939000
286.67449951,-78.14931000
286.76986694,-74.43193000
286.86523438,-84.94283000
286.96060181,-75.54977000
287.05596924,-74.66104000
287.15133667,-73.57455000
287.24670410,-68.38484000
287.34207153,-68.06100000
287.43743896,-69.27332000
287.53280640,-70.49448000
287.62817383,-70.21623000
287.72354126,-66.76547000
287.81890869,-63.67392000
287.91427612,-66.33661000
288.00964355,-79.42812000
288.10501099,-73.12342000
288.20037842,-67.11780000
288.29574585,-63.75803000
288.39111328,-64.28947000
288.48648071,-65.43877000
288.58184814,-66.75826000
288.67721558,-70.23129000
288.77258301,-71.56450000
288.86795044,-69.27356000
288.96331787,-75.76255000
289.05868530,-82.09549000
289.15405273,-70.96061000
289.24942017,-67.72253000
289.34478760,-74.81973000
289.44015503,-75.10482000
289.53552246,-70.92207000
289.63088989,-72.36494000
289.72625732,-80.42068000
289.82162476,-80.29259000
289.91699219,-69.71590000
290.01235962,-70.93996000
290.10772705,-83.05008000
290.20309448,-78.88686000
290.29846191,-68.61749000
290.39382935,-68.54930000
290.48919678,-64.45771000
290.58456421,-64.48689000
290.67993164,-79.89545000
290.77529907,-74.28905000
290.87066650,-72.28508000
290.96603394,-68.20309000
291.06140137,-68.53781000
291.15676880,-70.06943000
291.25213623,-64.79517000
291.34750366,-65.08216000
291.44287109,-75.94379000
291.53823853,-72.86600000
291.63360596,-64.19305000
291.72897339,-62.37739000
291.82434082,-67.75018000
291.91970825,-74.33799000
292.01507568,-70.07358000
292.11044312,-78.13619000
292.20581055,-79.99154000
292.30117798,-72.68538000
292.39654541,-70.90999000
292.49191284,-72.82815000
292.58728027,-64.31992000
292.68264771,-64.60349000
292.77801514,-68.65389000
292.87338257,-67.28323000
292.96875000,-66.73547000
293.06411743,-70.54927000
293.15948486,-70.34296000
293.25485229,-67.53747000
293.35021973,-73.50557000
293.44558716,-69.00933000
293.54095459,-67.61244000
293.63632202,-78.86594000
293.73168945,-70.84191000
293.82705688,-64.61198000
293.92242432,-65.16843000
294.01779175,-71.27699000
294.11315918,-69.07944000
294.20852661,-69.96896000
294.30389404,-67.96106000
294.39926147,-64.02792000
294.49462891,-65.15242000
294.58999634,-67.28530000
294.68536377,-74.26842000
294.78073120,-75.16547000
294.87609863,-72.65289000
294.97146606,-71.45956000
295.06683350,-69.14559000
295.16220093,-90.30625000
295.25756836,-68.12895000
295.35293579,-65.07411000
295.44830322,-61.86370000
295.54367065,-65.32780000
295.63903809,-77.74304000
295.73440552,-78.25399000
295.82977295,-77.16702000
295.92514038,-70.69052000
296.02050781,-67.76443000
296.11587524,-68.38264000
296.21124268,-71.04774000
296.30661011,-72.24078000
296.40197754,-70.91600000
296.49734497,-77.48524000
296.59271240,-79.99582000
296.68807983,-77.43924000
296.78344727,-69.36324000
296.87881470,-67.31070000
296.97418213,-65.59306000
297.06954956,-63.03452000
297.16491699,-64.70425000
297.26028442,-68.92348000
297.35565186,-72.52244000
297.45101929,-63.47760000
297.54638672,-67.77258000
297.64175415,-80.53065000
297.73712158,-71.22822000
297.83248901,-68.76889000
297.92785645,-63.35648000
298.02322388,-62.50725000
298.11859131,-70.53034000
298.21395874,-77.95912000
298.30932617,-72.74467000
298.40469360,-64.91932000
298.50006104,-64.51688000
298.59542847,-68.16007000
298.69079590,-78.04259000
298.78616333,-63.44214000
298.88153076,-62.33205000
298.97689819,-61.30278000
299.07226563,-62.65765000
299.16763306,-67.49998000
299.26300049,-68.00636000
299.35836792,-66.10516000
299.45373535,-65.37500000
299.54910278,-71.53838000
299.64447021,-76.78737000
299.73983765,-69.83854000
299.83520508,-70.31126000
299.93057251,-69.50439000
300.02593994,-68.19435000
300.12130737,-72.99964000
300.21667480,-81.06880000
300.31204224,-78.77843000
300.40740967,-71.54263000
300.50277710,-73.95779000
300.59814453,-67.15334000
300.69351196,-70.62708000
300.78887939,-60.99123000
300.88424683,-60.91477000
300.97961426,-63.85727000
301.07498169,-68.29403000
301.17034912,-70.03659000
301.26571655,-63.73462000
301.36108398,-68.30533000
301.45645142,-82.75500000
301.55181885,-70.12262000
301.64718628,-66.55238000
301.74255371,-68.74107000
301.83792114,-75.70173000
301.93328857,-78.61973000
302.02865601,-72.92593000
302.12402344,-71.88039000
302.21939087,-73.38776000
302.31475830,-75.17696000
302.41012573,-76.95700000
302.50549316,-76.83818000
302.60086060,-69.62624000
302.69622803,-67.90508000
302.79159546,-67.46832000
302.88696289,-64.36776000
302.98233032,-66.60150000
303.07769775,-71.08910000
303.17306519,-66.71359000
303.26843262,-67.27522000
303.36380005,-70.12803000
303.45916748,-67.25951000
303.55453491,-68.97544000
303.64990234,-79.94227000
303.74526978,-70.51990000
303.84063721,-86.73460000
303.93600464,-70.55479000
304.03137207,-73.57480000
304.12673950,-85.40395000
304.22210693,-68.70995000
304.31747437,-62.54893000
304.41284180,-65.48572000
304.50820923,-75.19469000
304.60357666,-70.46082000
304.69894409,-75.38779000
304.79431152,-71.05871000
304.88967896,-66.26527000
304.98504639,-66.53947000
305.08041382,-68.57639000
305.17578125,-71.16599000
305.27114868,-74.58083000
305.36651611,-84.28925000
305.46188354,-84.02718000
305.55725098,-79.99007000
305.65261841,-70.38213000
305.74798584,-63.80469000
305.84335327,-60.58363000
305.93872070,-60.60696000
306.03408813,-62.48801000
306.12945557,-65.99856000
306.22482300,-67.80399000
306.32019043,-68.92261000
306.41555786,-68.31185000
306.51092529,-67.73604000
306.60629272,-70.95390000
306.70166016,-80.71083000
306.79702759,-69.35284000
306.89239502,-70.68640000
306.98776245,-76.93620000
307.08312988,-73.92516000
307.17849731,-70.40800000
307.27386475,-69.81538000
307.36923218,-70.54606000
307.46459961,-73.79841000
307.55996704,-84.33528000
307.65533447,-72.33468000
307.75070190,-69.30180000
307.84606934,-73.84904000
307.94143677,-93.13348000
308.03680420,-79.92868000
308.13217163,-77.70869000
308.22753906,-85.34833000
308.32290649,-72.22452000
308.41827393,-65.26032000
308.51364136,-63.64249000
308.60900879,-66.87342000
308.70437622,-72.86041000
308.79974365,-68.80141000
308.89511108,-69.72109000
308.99047852,-83.55847000
309.08584595,-70.78706000
309.18121338,-68.01695000
309.27658081,-66.30212000
309.37194824,-63.38935000
309.46731567,-61.83675000
309.56268311,-65.51682000
309.65805054,-79.68108000
309.75341797,-75.13112000
309.84878540,-67.55909000
309.94415283,-64.15555000
310.03952026,-62.35817000
310.13488770,-68.16203000
310.23025513,-69.78048000
310.32562256,-63.03577000
310.42098999,-64.05135000
310.51635742,-67.86317000
310.61172485,-75.58457000
310.70709229,-73.77753000
310.80245972,-71.25795000
310.89782715,-68.95969000
310.99319458,-65.42651000
311.08856201,-62.69001000
311.18392944,-63.48653000
311.27929688,-66.17234000
311.37466431,-66.99611000
311.47003174,-64.92300000
311.56539917,-62.72907000
311.66076660,-65.61235000
311.75613403,-69.91515000
311.85150146,-71.11121000
311.94686890,-73.38652000
312.04223633,-69.18243000
312.13760376,-67.17326000
312.23297119,-79.38435000
312.32833862,-68.09134000
312.42370605,-70.71899000
312.51907349,-76.28526000
312.61444092,-81.76564000
312.70980835,-78.98264000
312.80517578,-85.32265000
312.90054321,-75.74723000
312.99591064,-69.02246000
313.09127808,-66.65983000
313.18664551,-64.65713000
313.28201294,-69.19833000
313.37738037,-76.85634000
313.47274780,-72.58241000
313.56811523,-72.89197000
313.66348267,-76.95129000
313.75885010,-70.23216000
313.85421753,-79.88644000
313.94958496,-72.43241000
314.04495239,-70.95560000
314.14031982,-66.08021000
314.23568726,-66.97776000
314.33105469,-69.27381000
314.42642212,-68.76956000
314.52178955,-71.96634000
314.61715698,-68.88770000
314.71252441,-65.19752000
314.80789185,-67.93530000
314.90325928,-72.51551000
314.99862671,-69.17409000
315.09399414,-67.40656000
315.18936157,-69.53590000
315.28472900,-69.99538000
315.38009644,-68.43980000
315.47546387,-66.17384000
315.57083130,-62.49359000
315.66619873,-61.74798000
315.76156616,-65.47038000
315.85693359,-72.83662000
315.95230103,-74.02972000
316.04766846,-65.83190000
316.14303589,-63.11868000
316.23840332,-67.31912000
316.33377075,-68.44382000
316.42913818,-82.27145000
316.52450562,-68.22185000
316.61987305,-70.44484000
316.71524048,-70.94582000
316.81060791,-63.09967000
316.90597534,-66.81985000
317.00134277,-81.70036000
317.09671021,-70.26851000
317.19207764,-65.59749000
317.28744507,-66.08048000
317.38281250,-77.53023000
317.47817993,-71.08064000
317.57354736,-71.44588000
317.66891479,-74.62964000
317.76428223,-68.72515000
317.85964966,-69.96850000
317.95501709,-71.55685000
318.05038452,-73.19774000
318.14575195,-71.75414000
318.24111938,-69.99264000
318.33648682,-70.45731000
318.43185425,-67.74695000
318.52722168,-66.75289000
318.62258911,-70.16257000
318.71795654,-80.42705000
318.81332397,-78.99232000
318.90869141,-77.94426000
319.00405884,-72.16763000
319.09942627,-67.22745000
319.19479370,-73.56291000
319.29016113,-66.24124000
319.38552856,-69.11378000
319.48089600,-75.49264000
319.57626343,-68.44907000
319.67163086,-75.26169000
319.76699829,-72.39549000
319.86236572,-70.27006000
319.95773315,-69.33112000
320.05310059,-72.90285000
320.14846802,-90.42162000
320.24383545,-71.76974000
320.33920288,-65.97433000
320.43457031,-61.65584000
320.52993774,-61.21706000
320.62530518,-61.86888000
320.72067261,-64.04572000
320.81604004,-67.95483000
320.91140747,-77.66887000
321.00677490,-71.73288000
321.10214233,-68.73800000
321.19750977,-73.34860000
321.29287720,-82.37186000
321.38824463,-74.50944000
321.48361206,-69.78421000
321.57897949,-75.50590000
321.67434692,-76.79839000
321.76971436,-79.05502000
321.86508179,-77.98725000
321.96044922,-74.12675000
322.05581665,-79.17551000
322.15118408,-78.21390000
322.24655151,-69.72167000
322.34191895,-72.81819000
322.43728638,-67.65969000
322.53265381,-69.04250000
322.62802124,-71.08517000
322.72338867,-68.84801000
322.81875610,-72.74669000
322.91412354,-71.08092000
323.00949097,-68.46191000
323.10485840,-62.37265000
323.20022583,-65.22868000
323.29559326,-84.17915000
323.39096069,-71.11221000
323.48632813,-69.39659000
323.58169556,-70.34036000
323.67706299,-69.56982000
323.77243042,-72.11135000
323.86779785,-71.02631000
323.96316528,-68.84693000
324.05853271,-66.83322000
324.15390015,-71.93111000
324.24926758,-80.86503000
324.34463501,-74.03213000
324.44000244,-68.09549000
324.53536987,-62.95557000
324.63073730,-64.55298000
324.72610474,-71.21217000
324.82147217,-80.84581000
324.91683960,-76.65241000
325.01220703,-86.30062000
325.10757446,-77.48212000
325.20294189,-85.01573000
325.29830933,-66.60851000
325.39367676,-66.43283000
325.48904419,-73.73949000
325.58441162,-78.37754000
325.67977905,-74.80490000
325.77514648,-67.83621000
325.87051392,-66.69863000
325.96588135,-66.96189000
326.06124878,-65.10476000
326.15661621,-67.00439000
326.25198364,-85.90701000
326.34735107,-74.02138000
326.44271851,-81.37824000
326.53808594,-69.36945000
326.63345337,-66.85165000
326.72882080,-71.63623000
326.82418823,-78.22869000
326.91955566,-75.83112000
327.01492310,-67.12029000
327.11029053,-67.90762000
327.20565796,-71.35330000
327.30102539,-73.77792000
327.39639282,-70.52757000
327.49176025,-66.52901000
327.58712769,-64.94365000
327.68249512,-71.06268000
327.77786255,-82.54059000
327.87322998,-70.77649000
327.96859741,-69.74100000
328.06396484,-80.67514000
328.15933228,-72.91009000
328.25469971,-71.55731000
328.35006714,-64.84540000
328.44543457,-62.96104000
328.54080200,-63.73211000
328.63616943,-65.23620000
328.73153687,-64.79826000
328.82690430,-69.75105000
328.92227173,-77.13633000
329.01763916,-73.76276000
329.11300659,-70.79765000
329.20837402,-66.19293000
329.30374146,-67.19484000
329.39910889,-66.54014000
329.49447632,-63.89275000
329.58984375,-64.32477000
329.68521118,-68.67793000
329.78057861,-75.62757000
329.87594604,-77.14585000
329.97131348,-68.73748000
330.06668091,-72.91538000
330.16204834,-86.29406000
330.25741577,-68.93017000
330.35278320,-67.37576000
330.44815063,-75.34855000
330.54351807,-78.53403000
330.63888550,-71.16990000
330.73425293,-68.13142000
330.82962036,-68.90993000
330.92498779,-73.89787000
331.02035522,-69.04203000
331.11572266,-65.72350000
331.21109009,-65.14864000
331.30645752,-68.46623000
331.40182495,-73.46866000
331.49719238,-76.03158000
331.59255981,-90.44865000
331.68792725,-77.31210000
331.78329468,-73.02351000
331.87866211,-68.74927000
331.97402954,-64.40711000
332.06939697,-61.95619000
332.16476440,-62.68195000
332.26013184,-71.04011000
332.35549927,-74.55416000
332.45086670,-62.41827000
332.54623413,-61.05700000
332.64160156,-67.70141000
332.73696899,-81.52802000
332.83233643,-79.08619000
332.92770386,-73.09023000
333.02307129,-68.54861000
333.11843872,-68.41692000
333.21380615,-66.97089000
333.30917358,-68.07199000
333.40454102,-68.95094000
333.49990845,-62.38789000
333.59527588,-61.19473000
333.69064331,-62.45011000
333.78601074,-64.05475000
333.88137817,-66.45183000
333.97674561,-69.72046000
334.07211304,-81.10841000
334.16748047,-69.01053000
334.26284790,-72.42018000
334.35821533,-66.49919000
334.45358276,-65.01738000
334.54895020,-66.39716000
334.64431763,-67.91495000
334.73968506,-72.11486000
334.83505249,-78.47966000
334.93041992,-84.90868000
335.02578735,-77.12572000
335.12115479,-77.26833000
335.21652222,-71.82862000
335.31188965,-72.09132000
335.40725708,-68.45534000
335.50262451,-84.83581000
335.59799194,-74.64671000
335.69335938,-72.12722000
335.78872681,-68.08742000
335.88409424,-67.94267000
335.97946167,-68.71764000
336.07482910,-78.86206000
336.17019653,-70.05029000
336.26556396,-69.77187000
336.36093140,-70.75654000
336.45629883,-66.97430000
336.55166626,-68.19623000
336.64703369,-73.21379000
336.74240112,-71.21465000
336.83776855,-67.94588000
336.93313599,-64.63811000
337.02850342,-66.11214000
337.12387085,-69.57799000
337.21923828,-67.49796000
337.31460571,-63.98168000
337.40997314,-67.32591000
337.50534058,-69.67310000
337.60070801,-68.90076000
337.69607544,-67.32983000
337.79144287,-66.00685000
337.88681030,-75.86523000
337.98217773,-72.55363000
338.07754517,-69.37741000
338.17291260,-71.39935000
338.26828003,-79.67329000
338.36364746,-64.46576000
338.45901489,-62.30209000
338.55438232,-62.87334000
338.64974976,-64.39996000
338.74511719,-67.80778000
338.84048462,-73.96677000
338.93585205,-76.24152000
339.03121948,-68.18107000
339.12658691,-65.52477000
339.22195435,-65.13461000
339.31732178,-67.14372000
339.41268921,-76.80570000
339.50805664,-78.08750000
339.60342407,-68.23701000
339.69879150,-66.01476000
339.79415894,-74.66292000
339.88952637,-77.21019000
339.98489380,-71.44545000
340.08026123,-69.39449000
340.17562866,-65.36899000
340.27099609,-64.94044000
340.36636353,-70.93889000
340.46173096,-90.72430000
340.55709839,-83.12541000
340.65246582,-85.89263000
340.74783325,-71.13895000
340.84320068,-65.21638000
340.93856812,-65.49655000
341.03393555,-71.55885000
341.12930298,-81.28560000
341.22467041,-73.62437000
341.32003784,-71.54064000
341.41540527,-96.39241000
341.51077271,-71.47733000
341.60614014,-65.48714000
341.70150757,-65.00099000
341.79687500,-65.98627000
341.89224243,-70.19998000
341.98760986,-72.78413000
342.08297729,-67.11494000
342.17834473,-67.04256000
342.27371216,-68.09487000
342.36907959,-67.19788000
342.46444702,-72.78274000
342.55981445,-71.79993000
342.65518188,-71.36191000
342.75054932,-68.92958000
342.84591675,-65.39802000
342.94128418,-67.31787000
343.03665161,-75.24486000
343.13201904,-73.18008000
343.22738647,-70.50638000
343.32275391,-72.63497000
343.41812134,-70.59236000
343.51348877,-65.96631000
343.60885620,-65.87745000
343.70422363,-64.41357000
343.79959106,-64.85004000
343.89495850,-69.63756000
343.99032593,-80.88396000
344.08569336,-64.76858000
344.18106079,-61.92272000
344.27642822,-64.55453000
344.37179565,-77.64944000
344.46716309,-65.00227000
344.56253052,-62.91579000
344.65789795,-68.13205000
344.75326538,-69.06450000
344.84863281,-64.65356000
344.94400024,-64.44334000
345.03936768,-65.38972000
345.13473511,-70.50182000
345.23010254,-63.92463000
345.32546997,-64.12767000
345.42083740,-73.34002000
345.51620483,-81.32764000
345.61157227,-75.14960000
345.70693970,-69.93966000
345.80230713,-71.60208000
345.89767456,-77.03929000
345.99304199,-66.23512000
346.08840942,-65.32812000
346.18377686,-67.78851000
346.27914429,-72.24565000
346.37451172,-73.12444000
346.46987915,-74.53954000
346.56524658,-72.19976000
346.66061401,-76.86699000
346.75598145,-71.32435000
346.85134888,-68.73801000
346.94671631,-65.00719000
347.04208374,-66.02063000
347.13745117,-68.38103000
347.23281860,-73.33779000
347.32818604,-74.10603000
347.42355347,-65.85394000
347.51892090,-62.78299000
347.61428833,-65.75397000
347.70965576,-72.04219000
347.80502319,-69.97759000
347.90039063,-73.66838000
347.99575806,-63.18121000
348.09112549,-64.00668000
348.18649292,-71.07032000
348.28186035,-77.31125000
348.37722778,-68.50652000
348.47259521,-65.07985000
348.56796265,-66.21533000
348.66333008,-68.85371000
348.75869751,-73.07939000
348.85406494,-68.96672000
348.94943237,-69.20300000
349.04479980,-66.95850000
349.14016724,-67.84108000
349.23553467,-65.40885000
349.33090210,-65.74768000
349.42626953,-66.43674000
349.52163696,-67.67936000
349.61700439,-71.78625000
349.71237183,-68.48256000
349.80773926,-69.04271000
349.90310669,-69.01805000
349.99847412,-75.50900000
350.09384155,-70.06047000
350.18920898,-66.90149000
350.28457642,-67.44688000
350.37994385,-63.46144000
350.47531128,-61.87895000
350.57067871,-63.27540000
350.66604614,-67.83298000
350.76141357,-65.46035000
350.85678101,-66.92143000
350.95214844,-83.97804000
351.04751587,-65.45927000
351.14288330,-62.60071000
351.23825073,-65.20506000
351.33361816,-70.74592000
351.42898560,-78.89618000
351.52435303,-67.76852000
351.61972046,-76.74002000
351.71508789,-68.97191000
351.81045532,-65.68717000
351.90582275,-70.49573000
352.00119019,-73.16978000
352.09655762,-68.05402000
352.19192505,-79.66721000
352.28729248,-64.92989000
352.38265991,-62.02422000
352.47802734,-68.01003000
352.57339478,-67.16533000
352.66876221,-61.37604000
352.76412964,-61.29527000
352.85949707,-62.66277000
352.95486450,-67.08977000
353.05023193,-77.29774000
353.14559937,-75.70799000
353.24096680,-81.71062000
353.33633423,-75.62863000
353.43170166,-73.84956000
353.52706909,-64.97704000
353.62243652,-63.85799000
353.71780396,-69.64983000
353.81317139,-82.13239000
353.90853882,-74.95460000
354.00390625,-77.08604000
354.09927368,-74.75322000
354.19464111,-73.14330000
354.29000854,-87.01439000
354.38537598,-77.02472000
354.48074341,-81.24256000
354.57611084,-68.93922000
354.67147827,-68.68970000
354.76684570,-71.64262000
354.86221313,-65.97633000
354.95758057,-67.10443000
355.05294800,-79.20381000
355.14831543,-70.57388000
355.24368286,-67.98896000
355.33905029,-64.74635000
355.43441772,-64.42345000
355.52978516,-67.96187000
355.62515259,-70.07413000
355.72052002,-70.61177000
355.81588745,-66.12834000
355.91125488,-63.07557000
356.00662231,-63.51186000
356.10198975,-66.32884000
356.19735718,-68.18148000
356.29272461,-72.56016000
356.38809204,-76.97113000
356.48345947,-67.65666000
356.57882690,-66.68192000
356.67419434,-68.77837000
356.76956177,-72.43577000
356.86492920,-67.51987000
356.96029663,-65.98364000
357.05566406,-69.46280000
357.15103149,-76.01434000
357.24639893,-79.93607000
357.34176636,-73.05449000
357.43713379,-71.84047000
357.53250122,-78.39978000
357.62786865,-74.27610000
357.72323608,-72.90630000
357.81860352,-84.65805000
357.91397095,-74.26048000
358.00933838,-72.08062000
358.10470581,-70.11952000
358.20007324,-66.45951000
358.29544067,-66.49095000
358.39080811,-70.06553000
358.48617554,-66.90012000
358.58154297,-66.19806000
358.67691040,-72.90760000
358.77227783,-85.86383000
358.86764526,-71.90523000
358.96301270,-67.05280000
359.05838013,-66.93098000
359.15374756,-65.27260000
359.24911499,-65.98346000
359.34448242,-66.64643000
359.43984985,-61.31030000
359.53521729,-60.68060000
359.63058472,-65.78969000
359.72595215,-75.83194000
359.82131958,-83.92914000
359.91668701,-71.63506000
360.01205444,-63.52238000
360.10742188,-61.60489000
360.20278931,-65.17465000
360.29815674,-68.37482000
360.39352417,-65.48256000
360.48889160,-63.79188000
360.58425903,-61.94386000
360.67962646,-62.01839000
360.77499390,-67.34166000
360.87036133,-74.26080000
360.96572876,-66.05239000
361.06109619,-65.68013000
361.15646362,-74.36987000
361.25183105,-69.08232000
361.34719849,-64.65874000
361.44256592,-67.41507000
361.53793335,-78.36929000
361.63330078,-81.30936000
361.72866821,-80.14224000
361.82403564,-79.53210000
361.91940308,-65.15428000
362.01477051,-60.93736000
362.11013794,-62.07413000
362.20550537,-61.53621000
362.30087280,-59.64323000
362.39624023,-62.71175000
362.49160767,-69.21795000
362.58697510,-73.20396000
362.68234253,-78.99642000
362.77770996,-72.73434000
362.87307739,-71.88863000
362.96844482,-80.67475000
363.06381226,-73.03333000
363.15917969,-74.93564000
363.25454712,-69.71083000
363.34991455,-64.80630000
363.44528198,-65.38342000
363.54064941,-72.23360000
363.63601685,-77.74404000
363.73138428,-68.04693000
363.82675171,-68.53053000
363.92211914,-70.34926000
364.01748657,-68.37903000
364.11285400,-66.80251000
364.20822144,-78.84551000
364.30358887,-63.45424000
364.39895630,-64.44526000
364.49432373,-83.56583000
364.58969116,-64.83955000
364.68505859,-64.89556000
364.78042603,-67.81515000
364.87579346,-81.75325000
364.97116089,-70.24452000
365.06652832,-72.52701000
365.16189575,-84.73634000
365.25726318,-70.18330000
365.35263062,-67.17038000
365.44799805,-68.82990000
365.54336548,-66.90690000
365.63873291,-75.82181000
365.73410034,-71.15006000
365.82946777,-64.42313000
365.92483521,-63.13336000
366.02020264,-64.66444000
366.11557007,-67.05598000
366.21093750,-69.47673000
366.30630493,-66.24223000
366.40167236,-65.20638000
366.49703979,-66.08863000
366.59240723,-70.52753000
366.68777466,-98.02852000
366.78314209,-74.29375000
366.87850952,-64.62894000
366.97387695,-63.02502000
367.06924438,-66.76774000
367.16461182,-70.00930000
367.25997925,-75.23729000
367.35534668,-72.60371000
367.45071411,-67.67758000
367.54608154,-63.86657000
367.64144897,-63.09712000
367.73681641,-65.17001000
367.83218384,-69.63287000
367.92755127,-70.45028000
368.02291870,-69.34335000
368.11828613,-72.24051000
368.21365356,-69.86438000
368.30902100,-64.87329000
368.40438843,-68.57384000
368.49975586,-72.38557000
368.59512329,-71.07651000
368.69049072,-88.04420000
368.78585815,-70.02747000
368.88122559,-69.25217000
368.97659302,-76.97324000
369.07196045,-78.59425000
369.16732788,-70.27620000
369.26269531,-68.15285000
369.35806274,-69.38301000
369.45343018,-75.22600000
369.54879761,-74.63611000
369.64416504,-68.88022000
369.73953247,-67.58214000
369.83489990,-70.86028000
369.93026733,-78.69710000
370.02563477,-63.44215000
370.12100220,-60.15365000
370.21636963,-61.67776000
370.31173706,-69.29249000
370.40710449,-70.30146000
370.50247192,-63.31901000
370.59783936,-63.52783000
370.69320679,-66.64867000
370.78857422,-72.43638000
370.88394165,-78.85213000
370.97930908,-72.71488000
371.07467651,-71.98289000
371.17004395,-73.69733000
371.26541138,-75.53519000
371.36077881,-80.43011000
371.45614624,-79.06407000
371.55151367,-73.17454000
371.64688110,-66.23918000
371.74224854,-64.70361000
371.83761597,-67.52262000
371.93298340,-77.54915000
372.02835083,-72.01350000
372.12371826,-67.03393000
372.21908569,-70.83752000
372.31445313,-70.31801000
372.40982056,-66.64716000
372.50518799,-66.27042000
372.60055542,-64.99069000
372.69592285,-67.09349000
372.79129028,-81.09063000
372.88665771,-71.15164000
372.98202515,-71.05064000
373.07739258,-69.66823000
373.17276001,-69.60059000
373.26812744,-77.73059000
373.36349487,-74.99509000
373.45886230,-81.97422000
373.55422974,-71.87004000
373.64959717,-67.63784000
373.74496460,-66.64201000
373.84033203,-69.56128000
373.93569946,-74.20036000
374.03106689,-68.57574000
374.12643433,-68.95921000
374.22180176,-78.38377000
374.31716919,-81.78050000
374.41253662,-74.80717000
374.50790405,-71.57050000
374.60327148,-74.51058000
374.69863892,-80.14256000
374.79400635,-64.85228000
374.88937378,-61.64893000
374.98474121,-65.39176000
375.08010864,-71.31660000
375.17547607,-70.18100000
375.27084351,-67.71927000
375.36621094,-68.09170000
375.46157837,-72.19389000
375.55694580,-75.37450000
375.65231323,-66.39795000
375.74768066,-68.67406000
375.84304810,-72.54128000
375.93841553,-70.01146000
376.03378296,-66.82277000
376.12915039,-60.70113000
376.22451782,-60.07715000
376.31988525,-61.92016000
376.41525269,-66.73727000
376.51062012,-70.90907000
376.60598755,-72.11980000
376.70135498,-75.46343000
376.79672241,-77.97530000
376.89208984,-70.21564000
376.98745728,-65.89198000
377.08282471,-66.56459000
377.17819214,-70.28628000
377.27355957,-66.05495000
377.36892700,-63.66886000
377.46429443,-63.96473000
377.55966187,-69.72192000
377.65502930,-83.05672000
377.75039673,-68.26559000
377.84576416,-71.56890000
377.94113159,-69.89632000
378.03649902,-66.62222000
378.13186646,-69.43752000
378.22723389,-70.56375000
378.32260132,-67.22643000
378.41796875,-69.28954000
378.51333618,-82.86076000
378.60870361,-69.61600000
378.70407104,-65.88486000
378.79943848,-64.70888000
378.89480591,-70.52647000
378.99017334,-66.88741000
379.08554077,-67.99801000
379.18090820,-76.97005000
379.27627563,-68.52704000
379.37164307,-66.68268000
379.46701050,-65.18659000
379.56237793,-64.28307000
379.65774536,-72.62758000
379.75311279,-66.44957000
379.84848022,-66.10198000
379.94384766,-69.17197000
380.03921509,-67.80266000
380.13458252,-68.36137000
380.22994995,-72.95918000
380.32531738,-73.43652000
380.42068481,-70.05019000
380.51605225,-64.95437000
380.61141968,-62.30828000
380.70678711,-64.27760000
380.80215454,-68.61281000
380.89752197,-67.46001000
380.99288940,-67.11957000
381.08825684,-76.05450000
381.18362427,-65.74091000
381.27899170,-64.16331000
381.37435913,-71.96262000
381.46972656,-76.73376000
381.56509399,-70.53143000
381.66046143,-65.16646000
381.75582886,-69.10831000
381.85119629,-73.20480000
381.94656372,-69.52889000
382.04193115,-68.46754000
382.13729858,-74.81058000
382.23266602,-73.45731000
382.32803345,-76.76731000
382.42340088,-73.12894000
382.51876831,-73.57507000
382.61413574,-69.14798000
382.70950317,-64.26679000
382.80487061,-66.31944000
382.90023804,-73.62051000
382.99560547,-79.92161000
383.09097290,-72.88056000
383.18634033,-68.45663000
383.28170776,-77.29095000
383.37707520,-67.65483000
383.47244263,-62.58295000
383.56781006,-64.54655000
383.66317749,-71.04751000
383.75854492,-78.80823000
383.85391235,-71.53718000
383.94927979,-72.32452000
384.04464722,-70.84880000
384.14001465,-65.33755000
384.23538208,-65.12008000
384.33074951,-69.14357000
384.42611694,-73.78279000
384.52148438,-72.67322000
384.61685181,-68.33175000
384.71221924,-72.68875000
384.80758667,-63.12557000
384.90295410,-62.84347000
384.99832153,-68.69464000
385.09368896,-74.66030000
385.18905640,-64.64288000
385.28442383,-66.38351000
385.37979126,-77.63411000
385.47515869,-69.97636000
385.57052612,-70.13376000
385.66589355,-79.10509000
385.76126099,-71.11530000
385.85662842,-65.76312000
385.95199585,-68.42617000
386.04736328,-71.94284000
386.14273071,-75.28897000
386.23809814,-72.15996000
386.33346558,-68.40905000
386.42883301,-76.48429000
386.52420044,-68.61102000
386.61956787,-66.47801000
386.71493530,-75.20432000
386.81030273,-69.16936000
386.90567017,-66.85795000
387.00103760,-63.95347000
387.09640503,-65.00990000
387.19177246,-63.59153000
387.28713989,-63.96577000
387.38250732,-70.53796000
387.47787476,-68.73523000
387.57324219,-67.19432000
387.66860962,-70.08722000
387.76397705,-69.97826000
387.85934448,-66.98318000
387.95471191,-66.20981000
388.05007935,-67.19281000
388.14544678,-70.86140000
388.24081421,-69.62886000
388.33618164,-67.48375000
388.43154907,-69.78417000
388.52691650,-75.42178000
388.62228394,-67.15639000
388.71765137,-71.82875000
388.81301880,-76.83055000
388.90838623,-69.43945000
389.00375366,-67.39539000
389.09912109,-67.70052000
389.19448853,-76.95375000
389.28985596,-79.90918000
389.38522339,-70.28667000
389.48059082,-66.09303000
389.57595825,-68.51684000
389.67132568,-75.29016000
389.76669312,-74.78786000
389.86206055,-77.11707000
389.95742798,-71.02642000
390.05279541,-72.59916000
390.14816284,-69.50796000
390.24353027,-69.35456000
390.33889771,-69.27480000
390.43426514,-71.82097000
390.52963257,-75.50621000
